# Transmission, k-averaged
# Date: 2021-05-13
#   E [eV]           T [G0]
   0.00050   0.66787675E-01
   0.00150   0.70517361E-01
   0.00250   0.11363702E+00
   0.00350   0.60339183E-01
   0.00450   0.16776538E-01
   0.00550   0.43551609E-01
   0.00650   0.12944511E-01
   0.00750   0.45022648E-01
   0.00850   0.68739560E-02
   0.00950   0.32890484E-01
   0.01050   0.10839938E-01
   0.01150   0.42924955E-02
   0.01250   0.13818462E-01
   0.01350   0.20157350E-01
   0.01450   0.33799452E-02
   0.01550   0.32382961E-02
   0.01650   0.14998779E-01
   0.01750   0.16984513E-01
   0.01850   0.29310281E-02
   0.01950   0.21546364E-02
   0.02050   0.40917490E-02
   0.02150   0.46210945E-01
   0.02250   0.85267480E-02
   0.02350   0.25004726E-02
   0.02450   0.19643877E-02
   0.02550   0.30779494E-02
   0.02650   0.13508033E-01
   0.02750   0.35752401E-01
   0.02850   0.47772652E-02
   0.02950   0.24445786E-02
   0.03050   0.23360488E-02
   0.03150   0.38205096E-02
   0.03250   0.14012251E-01
   0.03350   0.63034452E-01
   0.03450   0.84298160E-02
   0.03550   0.36896884E-02
   0.03650   0.29400513E-02
   0.03750   0.36291927E-02
   0.03850   0.73820846E-02
   0.03950   0.35100050E-01
   0.04050   0.35920858E-01
   0.04150   0.81770588E-02
   0.04250   0.43121139E-02
   0.04350   0.37051323E-02
   0.04450   0.48076576E-02
   0.04550   0.90350406E-02
   0.04650   0.15632072E-01
   0.04750   0.11163426E-01
   0.04850   0.57656886E-02
   0.04950   0.36014570E-02
   0.05050   0.27900147E-02
   0.05150   0.25877731E-02
   0.05250   0.27804873E-02
   0.05350   0.33003262E-02
   0.05450   0.39031357E-02
   0.05550   0.39153667E-02
   0.05650   0.31587882E-02
   0.05750   0.23380297E-02
   0.05850   0.18076149E-02
   0.05950   0.15402653E-02
   0.06050   0.14621043E-02
   0.06150   0.15290981E-02
   0.06250   0.16991985E-02
   0.06350   0.18642462E-02
   0.06450   0.18515205E-02
   0.06550   0.16418193E-02
   0.06650   0.14071567E-02
   0.06750   0.12695440E-02
   0.06850   0.12591401E-02
   0.06950   0.13822921E-02
   0.07050   0.16442093E-02
   0.07150   0.20159956E-02
   0.07250   0.23772269E-02
   0.07350   0.25744713E-02
   0.07450   0.26066031E-02
   0.07550   0.26068129E-02
   0.07650   0.26867723E-02
   0.07750   0.28950826E-02
   0.07850   0.32336146E-02
   0.07950   0.36563361E-02
   0.08050   0.40661721E-02
   0.08150   0.43598292E-02
   0.08250   0.45073568E-02
   0.08350   0.45686848E-02
   0.08450   0.46325158E-02
   0.08550   0.47629410E-02
   0.08650   0.49869996E-02
   0.08750   0.53001898E-02
   0.08850   0.56734090E-02
   0.08950   0.60616317E-02
   0.09050   0.64128283E-02
   0.09150   0.66373958E-02
   0.09250   0.65145604E-02
   0.09350   0.61770920E-02
   0.09450   0.58991238E-02
   0.09550   0.57042972E-02
   0.09650   0.55679027E-02
   0.09750   0.54646796E-02
   0.09850   0.53754840E-02
   0.09950   0.52887080E-02
   0.10050   0.51997877E-02
   0.10150   0.51092836E-02
   0.10250   0.50202911E-02
   0.10350   0.49360930E-02
   0.10450   0.48586419E-02
   0.10550   0.47879806E-02
   0.10650   0.47224034E-02
   0.10750   0.46590590E-02
   0.10850   0.45947358E-02
   0.10950   0.45265998E-02
   0.11050   0.44527301E-02
   0.11150   0.43723537E-02
   0.11250   0.42857672E-02
   0.11350   0.41940315E-02
   0.11450   0.40985504E-02
   0.11550   0.40006745E-02
   0.11650   0.39014141E-02
   0.11750   0.38013037E-02
   0.11850   0.37004112E-02
   0.11950   0.35984551E-02
   0.12050   0.34949835E-02
   0.12150   0.33895674E-02
   0.12250   0.32819603E-02
   0.12350   0.31722025E-02
   0.12450   0.30606485E-02
   0.12550   0.29479282E-02
   0.12650   0.28348584E-02
   0.12750   0.27223313E-02
   0.12850   0.26112129E-02
   0.12950   0.25022652E-02
   0.13050   0.23961111E-02
   0.13150   0.22932377E-02
   0.13250   0.21940288E-02
   0.13350   0.20988195E-02
   0.13450   0.20079541E-02
   0.13550   0.19218342E-02
   0.13650   0.18409500E-02
   0.13750   0.17658859E-02
   0.13850   0.16973040E-02
   0.13950   0.16359083E-02
   0.14050   0.15823991E-02
   0.14150   0.15374258E-02
   0.14250   0.15015434E-02
   0.14350   0.14751812E-02
   0.14450   0.14586200E-02
   0.14550   0.14519824E-02
   0.14650   0.14552308E-02
   0.14750   0.14681738E-02
   0.14850   0.14904800E-02
   0.14950   0.15216963E-02
   0.15050   0.15612714E-02
   0.15150   0.16085806E-02
   0.15250   0.16629494E-02
   0.15350   0.17236723E-02
   0.15450   0.17900241E-02
   0.15550   0.18612630E-02
   0.15650   0.19366251E-02
   0.15750   0.20153157E-02
   0.15850   0.20965002E-02
   0.15950   0.21793009E-02
   0.16050   0.22628023E-02
   0.16150   0.23460709E-02
   0.16250   0.24281833E-02
   0.16350   0.25082622E-02
   0.16450   0.25855110E-02
   0.16550   0.26592403E-02
   0.16650   0.27288746E-02
   0.16750   0.27939291E-02
   0.16850   0.28539449E-02
   0.16950   0.29083628E-02
   0.17050   0.29562784E-02
   0.17150   0.29959395E-02
   0.17250   0.30235294E-02
   0.17350   0.30295970E-02
   0.17450   0.29861964E-02
   0.17550   0.28107250E-02
   0.17650   0.24973289E-02
   0.17750   0.22288277E-02
   0.17850   0.20256753E-02
   0.17950   0.18657420E-02
   0.18050   0.17346907E-02
   0.18150   0.16240927E-02
   0.18250   0.15287254E-02
   0.18350   0.14451595E-02
   0.18450   0.13710299E-02
   0.18550   0.13046365E-02
   0.18650   0.12447161E-02
   0.18750   0.11903029E-02
   0.18850   0.11406410E-02
   0.18950   0.10951274E-02
   0.19050   0.10532726E-02
   0.19150   0.10146748E-02
   0.19250   0.97900024E-03
   0.19350   0.94596931E-03
   0.19450   0.91534661E-03
   0.19550   0.88693231E-03
   0.19650   0.86055597E-03
   0.19750   0.83607156E-03
   0.19850   0.81335322E-03
   0.19950   0.79229183E-03
   0.20050   0.77279226E-03
   0.20150   0.75477094E-03
   0.20250   0.73815428E-03
   0.20350   0.72287727E-03
   0.20450   0.70888211E-03
   0.20550   0.69611770E-03
   0.20650   0.68453932E-03
   0.20750   0.67410787E-03
   0.20850   0.66479034E-03
   0.20950   0.65655919E-03
   0.21050   0.64939266E-03
   0.21150   0.64327387E-03
   0.21250   0.63818984E-03
   0.21350   0.63412753E-03
   0.21450   0.63106423E-03
   0.21550   0.62893779E-03
   0.21650   0.62754343E-03
   0.21750   0.62629895E-03
   0.21850   0.62543311E-03
   0.21950   0.62640186E-03
   0.22050   0.62932528E-03
   0.22150   0.63406234E-03
   0.22250   0.64055895E-03
   0.22350   0.64883567E-03
   0.22450   0.65897376E-03
   0.22550   0.67111454E-03
   0.22650   0.68546803E-03
   0.22750   0.70233201E-03
   0.22850   0.72212337E-03
   0.22950   0.74542861E-03
   0.23050   0.77308196E-03
   0.23150   0.80626761E-03
   0.23250   0.84651686E-03
   0.23350   0.89430960E-03
   0.23450   0.93559391E-03
   0.23550   0.92526543E-03
   0.23650   0.88355306E-03
   0.23750   0.83947822E-03
   0.23850   0.79831644E-03
   0.23950   0.76043117E-03
   0.24050   0.72543183E-03
   0.24150   0.69287128E-03
   0.24250   0.66236837E-03
   0.24350   0.63361845E-03
   0.24450   0.60638308E-03
   0.24550   0.58047642E-03
   0.24650   0.55575423E-03
   0.24750   0.53210498E-03
   0.24850   0.50944247E-03
   0.24950   0.48770051E-03
   0.25050   0.46682858E-03
   0.25150   0.44678806E-03
   0.25250   0.42754944E-03
   0.25350   0.40909002E-03
   0.25450   0.39139178E-03
   0.25550   0.37444002E-03
   0.25650   0.35822185E-03
   0.25750   0.34272525E-03
   0.25850   0.32793832E-03
   0.25950   0.31384861E-03
   0.26050   0.30044274E-03
   0.26150   0.28770632E-03
   0.26250   0.27562358E-03
   0.26350   0.26417756E-03
   0.26450   0.25335018E-03
   0.26550   0.24312227E-03
   0.26650   0.23347393E-03
   0.26750   0.22438461E-03
   0.26850   0.21583338E-03
   0.26950   0.20779920E-03
   0.27050   0.20026098E-03
   0.27150   0.19319798E-03
   0.27250   0.18658982E-03
   0.27350   0.18041670E-03
   0.27450   0.17465951E-03
   0.27550   0.16930002E-03
   0.27650   0.16432085E-03
   0.27750   0.15970567E-03
   0.27850   0.15543915E-03
   0.27950   0.15150712E-03
   0.28050   0.14789656E-03
   0.28150   0.14459564E-03
   0.28250   0.14159379E-03
   0.28350   0.13888167E-03
   0.28450   0.13645130E-03
   0.28550   0.13429597E-03
   0.28650   0.13241032E-03
   0.28750   0.13079036E-03
   0.28850   0.12943332E-03
   0.28950   0.12833759E-03
   0.29050   0.12750227E-03
   0.29150   0.12692634E-03
   0.29250   0.12660676E-03
   0.29350   0.12653405E-03
   0.29450   0.12668145E-03
   0.29550   0.12697566E-03
   0.29650   0.12720542E-03
   0.29750   0.12667650E-03
   0.29850   0.12279199E-03
   0.29950   0.11140085E-03
   0.30050   0.98929115E-04
   0.30150   0.89355453E-04
   0.30250   0.82056256E-04
   0.30350   0.76337608E-04
   0.30450   0.71761962E-04
   0.30550   0.68052774E-04
   0.30650   0.65027583E-04
   0.30750   0.62561339E-04
   0.30850   0.60565937E-04
   0.30950   0.58978319E-04
   0.31050   0.57753245E-04
   0.31150   0.56858764E-04
   0.31250   0.56273337E-04
   0.31350   0.55983983E-04
   0.31450   0.55985129E-04
   0.31550   0.56277961E-04
   0.31650   0.56870143E-04
   0.31750   0.57775796E-04
   0.31850   0.59015696E-04
   0.31950   0.60617560E-04
   0.32050   0.62616324E-04
   0.32150   0.65054141E-04
   0.32250   0.67979658E-04
   0.32350   0.71445778E-04
   0.32450   0.75504424E-04
   0.32550   0.80195881E-04
   0.32650   0.85528569E-04
   0.32750   0.91443726E-04
   0.32850   0.97759235E-04
   0.32950   0.10409510E-03
   0.33050   0.10981350E-03
   0.33150   0.11407749E-03
   0.33250   0.11620751E-03
   0.33350   0.11634845E-03
   0.33450   0.11569716E-03
   0.33550   0.11511179E-03
   0.33650   0.11329883E-03
   0.33750   0.10789553E-03
   0.33850   0.98285149E-04
   0.33950   0.86032487E-04
   0.34050   0.73263960E-04
   0.34150   0.61469196E-04
   0.34250   0.51319508E-04
   0.34350   0.42934778E-04
   0.34450   0.36165220E-04
   0.34550   0.30768402E-04
   0.34650   0.26496611E-04
   0.34750   0.23131668E-04
   0.34850   0.20494061E-04
   0.34950   0.18441237E-04
   0.35050   0.16862256E-04
   0.35150   0.15671918E-04
   0.35250   0.14805554E-04
   0.35350   0.14214822E-04
   0.35450   0.13864512E-04
   0.35550   0.13730272E-04
   0.35650   0.13797200E-04
   0.35750   0.14059355E-04
   0.35850   0.14520508E-04
   0.35950   0.15197180E-04
   0.36050   0.16126989E-04
   0.36150   0.17390279E-04
   0.36250   0.19113982E-04
   0.36350   0.21065181E-04
   0.36450   0.22876662E-04
   0.36550   0.24660032E-04
   0.36650   0.26533295E-04
   0.36750   0.28576253E-04
   0.36850   0.30857864E-04
   0.36950   0.33449622E-04
   0.37050   0.36433612E-04
   0.37150   0.39909599E-04
   0.37250   0.44003129E-04
   0.37350   0.48876202E-04
   0.37450   0.54742286E-04
   0.37550   0.61888466E-04
   0.37650   0.70709262E-04
   0.37750   0.81760110E-04
   0.37850   0.95844014E-04
   0.37950   0.11414608E-03
   0.38050   0.13833305E-03
   0.38150   0.16918883E-03
   0.38250   0.19733798E-03
   0.38350   0.21571042E-03
   0.38450   0.23220060E-03
   0.38550   0.24932969E-03
   0.38650   0.26667712E-03
   0.38750   0.28270745E-03
   0.38850   0.29533904E-03
   0.38950   0.30258804E-03
   0.39050   0.30322644E-03
   0.39150   0.29693375E-03
   0.39250   0.28400929E-03
   0.39350   0.26535889E-03
   0.39450   0.24269457E-03
   0.39550   0.21825172E-03
   0.39650   0.19410942E-03
   0.39750   0.17171093E-03
   0.39850   0.15179488E-03
   0.39950   0.13456827E-03
   0.40050   0.11992238E-03
   0.40150   0.10759947E-03
   0.40250   0.97295815E-04
   0.40350   0.88716304E-04
   0.40450   0.81598948E-04
   0.40550   0.75723059E-04
   0.40650   0.70909497E-04
   0.40750   0.67017696E-04
   0.40850   0.63941879E-04
   0.40950   0.61607221E-04
   0.41050   0.59964783E-04
   0.41150   0.58978258E-04
   0.41250   0.58562960E-04
   0.41350   0.58192923E-04
   0.41450   0.54709213E-04
   0.41550   0.43275235E-04
   0.41650   0.23079538E-04
   0.41750   0.29235322E-04
   0.41850   0.60788814E-04
   0.41950   0.70410984E-04
   0.42050   0.74265241E-04
   0.42150   0.78055717E-04
   0.42250   0.83302810E-04
   0.42350   0.90852627E-04
   0.42450   0.10168586E-03
   0.42550   0.11733257E-03
   0.42650   0.14047524E-03
   0.42750   0.17632256E-03
   0.42850   0.23640432E-03
   0.42950   0.34914323E-03
   0.43050   0.54770801E-03
   0.43150   0.63834374E-03
   0.43250   0.58725249E-03
   0.43350   0.54877874E-03
   0.43450   0.46722623E-03
   0.43550   0.27912616E-03
   0.43650   0.12800594E-03
   0.43750   0.62544816E-04
   0.43850   0.31582851E-04
   0.43950   0.42297223E-04
   0.44050   0.51168684E-03
   0.44150   0.30643996E-02
   0.44250   0.10553228E-02
   0.44350   0.12728544E-02
   0.44450   0.11815145E-02
   0.44550   0.12073754E-02
   0.44650   0.12663209E-02
   0.44750   0.13326457E-02
   0.44850   0.13552024E-02
   0.44950   0.13534158E-02
   0.45050   0.13361296E-02
   0.45150   0.13062115E-02
   0.45250   0.12728901E-02
   0.45350   0.12324783E-02
   0.45450   0.11759133E-02
   0.45550   0.11035602E-02
   0.45650   0.10239759E-02
   0.45750   0.94425963E-03
   0.45850   0.86643087E-03
   0.45950   0.79044007E-03
   0.46050   0.71735331E-03
   0.46150   0.64943504E-03
   0.46250   0.58851077E-03
   0.46350   0.53506711E-03
   0.46450   0.48860203E-03
   0.46550   0.44835461E-03
   0.46650   0.41372911E-03
   0.46750   0.38433020E-03
   0.46850   0.35982268E-03
   0.46950   0.33981650E-03
   0.47050   0.32383783E-03
   0.47150   0.31135546E-03
   0.47250   0.30182317E-03
   0.47350   0.29472023E-03
   0.47450   0.28958468E-03
   0.47550   0.28603373E-03
   0.47650   0.28376648E-03
   0.47750   0.28255020E-03
   0.47850   0.28219825E-03
   0.47950   0.28254971E-03
   0.48050   0.28345763E-03
   0.48150   0.28478709E-03
   0.48250   0.28641982E-03
   0.48350   0.28826113E-03
   0.48450   0.29024467E-03
   0.48550   0.29233273E-03
   0.48650   0.29451301E-03
   0.48750   0.29679263E-03
   0.48850   0.29919195E-03
   0.48950   0.30173955E-03
   0.49050   0.30446859E-03
   0.49150   0.30741363E-03
   0.49250   0.31060528E-03
   0.49350   0.31405606E-03
   0.49450   0.31772055E-03
   0.49550   0.32137873E-03
   0.49650   0.32425582E-03
   0.49750   0.32368579E-03
   0.49850   0.31331734E-03
   0.49950   0.29621599E-03
   0.50050   0.28046768E-03
   0.50150   0.26714065E-03
   0.50250   0.25667631E-03
   0.50350   0.24935606E-03
   0.50450   0.24508609E-03
   0.50550   0.24348577E-03
   0.50650   0.24406977E-03
   0.50750   0.24638421E-03
   0.50850   0.25007169E-03
   0.50950   0.25488605E-03
   0.51050   0.26068298E-03
   0.51150   0.26740323E-03
   0.51250   0.27505710E-03
   0.51350   0.28371456E-03
   0.51450   0.29350232E-03
   0.51550   0.30460971E-03
   0.51650   0.31730242E-03
   0.51750   0.33193725E-03
   0.51850   0.34892355E-03
   0.51950   0.36825033E-03
   0.52050   0.38590800E-03
   0.52150   0.38832636E-03
   0.52250   0.38234534E-03
   0.52350   0.37901764E-03
   0.52450   0.37986282E-03
   0.52550   0.38497674E-03
   0.52650   0.39450522E-03
   0.52750   0.40846830E-03
   0.52850   0.42576183E-03
   0.52950   0.44232144E-03
   0.53050   0.45135870E-03
   0.53150   0.45050221E-03
   0.53250   0.44349511E-03
   0.53350   0.42096750E-03
   0.53450   0.38355979E-03
   0.53550   0.34941078E-03
   0.53650   0.32099462E-03
   0.53750   0.29717325E-03
   0.53850   0.27685380E-03
   0.53950   0.25924470E-03
   0.54050   0.24378278E-03
   0.54150   0.23005933E-03
   0.54250   0.21777033E-03
   0.54350   0.20668418E-03
   0.54450   0.19662076E-03
   0.54550   0.18743740E-03
   0.54650   0.17901922E-03
   0.54750   0.17127239E-03
   0.54850   0.16411919E-03
   0.54950   0.15749449E-03
   0.55050   0.15134300E-03
   0.55150   0.14561732E-03
   0.55250   0.14027640E-03
   0.55350   0.13528440E-03
   0.55450   0.13060974E-03
   0.55550   0.12622442E-03
   0.55650   0.12210345E-03
   0.55750   0.11822423E-03
   0.55850   0.11456622E-03
   0.55950   0.11111030E-03
   0.56050   0.10783817E-03
   0.56150   0.10473145E-03
   0.56250   0.10177033E-03
   0.56350   0.98931196E-04
   0.56450   0.96182368E-04
   0.56550   0.93475937E-04
   0.56650   0.90731475E-04
   0.56750   0.87802619E-04
   0.56850   0.84408457E-04
   0.56950   0.79996302E-04
   0.57050   0.73524076E-04
   0.57150   0.64469779E-04
   0.57250   0.58353467E-04
   0.57350   0.58974379E-04
   0.57450   0.61455059E-04
   0.57550   0.63164422E-04
   0.57650   0.63934822E-04
   0.57750   0.64057516E-04
   0.57850   0.63775311E-04
   0.57950   0.63242493E-04
   0.58050   0.62552041E-04
   0.58150   0.61759369E-04
   0.58250   0.60897091E-04
   0.58350   0.59983522E-04
   0.58450   0.59027669E-04
   0.58550   0.58032252E-04
   0.58650   0.56995887E-04
   0.58750   0.55915156E-04
   0.58850   0.54787790E-04
   0.58950   0.53618791E-04
   0.59050   0.52434003E-04
   0.59150   0.51312290E-04
   0.59250   0.50467872E-04
   0.59350   0.50490002E-04
   0.59450   0.53262149E-04
   0.59550   0.68746405E-04
   0.59650   0.19595651E-03
   0.59750   0.23783580E-03
   0.59850   0.47042259E-03
   0.59950   0.66539284E-03
   0.60050   0.50265295E-03
   0.60150   0.36364366E-03
   0.60250   0.29268343E-03
   0.60350   0.25616493E-03
   0.60450   0.23563241E-03
   0.60550   0.21744319E-03
   0.60650   0.19065563E-03
   0.60750   0.21961601E-03
   0.60850   0.10231209E-02
   0.60950   0.11725655E-02
   0.61050   0.14258079E-02
   0.61150   0.72344730E-03
   0.61250   0.63301377E-01
   0.61350   0.11627689E-01
   0.61450   0.68117641E-02
   0.61550   0.70505482E-02
   0.61650   0.70522041E-02
   0.61750   0.53246911E-02
   0.61850   0.51794662E-02
   0.61950   0.46325843E-02
   0.62050   0.40765060E-02
   0.62150   0.32742613E-02
   0.62250   0.27108344E-02
   0.62350   0.25571934E-02
   0.62450   0.24909831E-02
   0.62550   0.25382396E-02
   0.62650   0.25550139E-02
   0.62750   0.24024630E-02
   0.62850   0.22102783E-02
   0.62950   0.20592050E-02
   0.63050   0.19106464E-02
   0.63150   0.17606979E-02
   0.63250   0.16522137E-02
   0.63350   0.15987115E-02
   0.63450   0.15779739E-02
   0.63550   0.15675253E-02
   0.63650   0.15624180E-02
   0.63750   0.15640290E-02
   0.63850   0.15666902E-02
   0.63950   0.15593183E-02
   0.64050   0.15343027E-02
   0.64150   0.14915026E-02
   0.64250   0.14351358E-02
   0.64350   0.13695828E-02
   0.64450   0.12981413E-02
   0.64550   0.12237398E-02
   0.64650   0.11494671E-02
   0.64750   0.10782733E-02
   0.64850   0.10124034E-02
   0.64950   0.95313886E-03
   0.65050   0.90092426E-03
   0.65150   0.85565419E-03
   0.65250   0.81691763E-03
   0.65350   0.78413682E-03
   0.65450   0.75663201E-03
   0.65550   0.73366333E-03
   0.65650   0.71447849E-03
   0.65750   0.69836510E-03
   0.65850   0.68469526E-03
   0.65950   0.67294936E-03
   0.66050   0.66271785E-03
   0.66150   0.65368583E-03
   0.66250   0.64561231E-03
   0.66350   0.63831249E-03
   0.66450   0.63164684E-03
   0.66550   0.62551594E-03
   0.66650   0.61985763E-03
   0.66750   0.61464269E-03
   0.66850   0.60986803E-03
   0.66950   0.60554821E-03
   0.67050   0.60170749E-03
   0.67150   0.59837493E-03
   0.67250   0.59558329E-03
   0.67350   0.59337151E-03
   0.67450   0.59178943E-03
   0.67550   0.59090310E-03
   0.67650   0.59079909E-03
   0.67750   0.59158838E-03
   0.67850   0.59341127E-03
   0.67950   0.59644337E-03
   0.68050   0.60090725E-03
   0.68150   0.60708943E-03
   0.68250   0.61535975E-03
   0.68350   0.62617392E-03
   0.68450   0.63995231E-03
   0.68550   0.65622211E-03
   0.68650   0.66796207E-03
   0.68750   0.64307323E-03
   0.68850   0.58237062E-03
   0.68950   0.52579056E-03
   0.69050   0.47945810E-03
   0.69150   0.44154798E-03
   0.69250   0.41018342E-03
   0.69350   0.38401777E-03
   0.69450   0.36211661E-03
   0.69550   0.34383102E-03
   0.69650   0.32871327E-03
   0.69750   0.31646580E-03
   0.69850   0.30691185E-03
   0.69950   0.29998171E-03
   0.70050   0.29571020E-03
   0.70150   0.29423990E-03
   0.70250   0.29580071E-03
   0.70350   0.30048631E-03
   0.70450   0.30655751E-03
   0.70550   0.30252439E-03
   0.70650   0.28216385E-03
   0.70750   0.26174419E-03
   0.70850   0.24521156E-03
   0.70950   0.23202311E-03
   0.71050   0.22145582E-03
   0.71150   0.21298708E-03
   0.71250   0.20626752E-03
   0.71350   0.20108122E-03
   0.71450   0.19733059E-03
   0.71550   0.19505277E-03
   0.71650   0.19448584E-03
   0.71750   0.19624583E-03
   0.71850   0.20180305E-03
   0.71950   0.21490024E-03
   0.72050   0.24621448E-03
   0.72150   0.32486714E-03
   0.72250   0.41408345E-03
   0.72350   0.30521760E-03
   0.72450   0.40330252E-03
   0.72550   0.39646984E-03
   0.72650   0.46810519E-03
   0.72750   0.69685996E-03
   0.72850   0.15231636E-02
   0.72950   0.34101977E-03
   0.73050   0.91734519E-02
   0.73150   0.70791151E-02
   0.73250   0.30088502E-02
   0.73350   0.32667443E-02
   0.73450   0.11962162E-01
   0.73550   0.28430244E-01
   0.73650   0.14622556E-01
   0.73750   0.86241215E-02
   0.73850   0.54083876E-02
   0.73950   0.54135886E-02
   0.74050   0.62552090E-02
   0.74150   0.58537824E-02
   0.74250   0.56824908E-02
   0.74350   0.54718768E-02
   0.74450   0.55912845E-02
   0.74550   0.59792879E-02
   0.74650   0.64576212E-02
   0.74750   0.68501146E-02
   0.74850   0.69836974E-02
   0.74950   0.70456909E-02
   0.75050   0.71658641E-02
   0.75150   0.71474817E-02
   0.75250   0.68484284E-02
   0.75350   0.64117359E-02
   0.75450   0.59984219E-02
   0.75550   0.56342464E-02
   0.75650   0.52842009E-02
   0.75750   0.49332236E-02
   0.75850   0.45967042E-02
   0.75950   0.42945710E-02
   0.76050   0.40375008E-02
   0.76150   0.38310273E-02
   0.76250   0.36798024E-02
   0.76350   0.35847777E-02
   0.76450   0.35394013E-02
   0.76550   0.35306069E-02
   0.76650   0.35439574E-02
   0.76750   0.35686737E-02
   0.76850   0.35990747E-02
   0.76950   0.36325040E-02
   0.77050   0.36665159E-02
   0.77150   0.36977204E-02
   0.77250   0.37226775E-02
   0.77350   0.37396960E-02
   0.77450   0.37500325E-02
   0.77550   0.37576319E-02
   0.77650   0.37676299E-02
   0.77750   0.37845606E-02
   0.77850   0.38111308E-02
   0.77950   0.38478035E-02
   0.78050   0.38921493E-02
   0.78150   0.39309706E-02
   0.78250   0.39165849E-02
   0.78350   0.38577826E-02
   0.78450   0.38032799E-02
   0.78550   0.37588214E-02
   0.78650   0.37207967E-02
   0.78750   0.36851175E-02
   0.78850   0.36482739E-02
   0.78950   0.36075427E-02
   0.79050   0.35610730E-02
   0.79150   0.35078845E-02
   0.79250   0.34477699E-02
   0.79350   0.33811233E-02
   0.79450   0.33087332E-02
   0.79550   0.32315967E-02
   0.79650   0.31507898E-02
   0.79750   0.30674099E-02
   0.79850   0.29825738E-02
   0.79950   0.28974493E-02
   0.80050   0.28132875E-02
   0.80150   0.27314390E-02
   0.80250   0.26533371E-02
   0.80350   0.25804539E-02
   0.80450   0.25142434E-02
   0.80550   0.24560834E-02
   0.80650   0.24072344E-02
   0.80750   0.23688176E-02
   0.80850   0.23418127E-02
   0.80950   0.23270720E-02
   0.81050   0.23253518E-02
   0.81150   0.23373656E-02
   0.81250   0.23638667E-02
   0.81350   0.24057804E-02
   0.81450   0.24644251E-02
   0.81550   0.25419216E-02
   0.81650   0.26420741E-02
   0.81750   0.27721070E-02
   0.81850   0.29370177E-02
   0.81950   0.29758364E-02
   0.82050   0.13014043E-01
   0.82150   0.12715213E-01
   0.82250   0.12111035E-01
   0.82350   0.14754754E-01
   0.82450   0.20770781E-01
   0.82550   0.21421293E-01
   0.82650   0.14811181E-01
   0.82750   0.11480559E-01
   0.82850   0.11453569E-01
   0.82950   0.15071841E-01
   0.83050   0.29457781E-01
   0.83150   0.48584945E-01
   0.83250   0.36909092E-01
   0.83350   0.46030220E-01
   0.83450   0.37507214E-01
   0.83550   0.20117549E-01
   0.83650   0.29201247E-01
   0.83750   0.27796233E-01
   0.83850   0.26118057E-01
   0.83950   0.34982525E-01
   0.84050   0.42219330E-01
   0.84150   0.50702401E-01
   0.84250   0.62493559E-01
   0.84350   0.70431501E-01
   0.84450   0.68737432E-01
   0.84550   0.67460343E-01
   0.84650   0.68821311E-01
   0.84750   0.72015405E-01
   0.84850   0.75123027E-01
   0.84950   0.76516502E-01
   0.85050   0.76326407E-01
   0.85150   0.75270742E-01
   0.85250   0.74098952E-01
   0.85350   0.73087007E-01
   0.85450   0.71924835E-01
   0.85550   0.70072286E-01
   0.85650   0.67312449E-01
   0.85750   0.63979343E-01
   0.85850   0.60637057E-01
   0.85950   0.57670265E-01
   0.86050   0.55172566E-01
   0.86150   0.53041834E-01
   0.86250   0.51103529E-01
   0.86350   0.49203452E-01
   0.86450   0.47263667E-01
   0.86550   0.45292120E-01
   0.86650   0.43349039E-01
   0.86750   0.41499663E-01
   0.86850   0.39784785E-01
   0.86950   0.38217001E-01
   0.87050   0.36791831E-01
   0.87150   0.35500415E-01
   0.87250   0.34336980E-01
   0.87350   0.33300553E-01
   0.87450   0.32393225E-01
   0.87550   0.31617690E-01
   0.87650   0.30975562E-01
   0.87750   0.30466817E-01
   0.87850   0.30089878E-01
   0.87950   0.29841773E-01
   0.88050   0.29718146E-01
   0.88150   0.29713118E-01
   0.88250   0.29819179E-01
   0.88350   0.30027132E-01
   0.88450   0.30326115E-01
   0.88550   0.30703695E-01
   0.88650   0.31146051E-01
   0.88750   0.31638190E-01
   0.88850   0.32164257E-01
   0.88950   0.32707982E-01
   0.89050   0.33253491E-01
   0.89150   0.33786658E-01
   0.89250   0.34297168E-01
   0.89350   0.34781158E-01
   0.89450   0.35244130E-01
   0.89550   0.35703816E-01
   0.89650   0.36193434E-01
   0.89750   0.36768556E-01
   0.89850   0.37532020E-01
   0.89950   0.38764793E-01
   0.90050   0.42249691E-01
   0.90150   0.70870847E-01
   0.90250   0.46668466E-01
   0.90350   0.47686592E-01
   0.90450   0.50708588E-01
   0.90550   0.53013645E-01
   0.90650   0.56361694E-01
   0.90750   0.63029081E-01
   0.90850   0.74141808E-01
   0.90950   0.85617401E-01
   0.91050   0.98205224E-01
   0.91150   0.11190680E+00
   0.91250   0.90883501E-01
   0.91350   0.79805359E-01
   0.91450   0.83619907E-01
   0.91550   0.94872177E-01
   0.91650   0.11736379E+00
   0.91750   0.15486066E+00
   0.91850   0.18363431E+00
   0.91950   0.20045160E+00
   0.92050   0.19804136E+00
   0.92150   0.19317992E+00
   0.92250   0.20517373E+00
   0.92350   0.22649826E+00
   0.92450   0.24987939E+00
   0.92550   0.27098918E+00
   0.92650   0.28942007E+00
   0.92750   0.30732077E+00
   0.92850   0.32662544E+00
   0.92950   0.34711838E+00
   0.93050   0.36327690E+00
   0.93150   0.36486316E+00
   0.93250   0.35013133E+00
   0.93350   0.32794434E+00
   0.93450   0.30581671E+00
   0.93550   0.28816512E+00
   0.93650   0.27742848E+00
   0.93750   0.27395910E+00
   0.93850   0.27670845E+00
   0.93950   0.28399870E+00
   0.94050   0.29408550E+00
   0.94150   0.30585349E+00
   0.94250   0.31920743E+00
   0.94350   0.33442470E+00
   0.94450   0.35075030E+00
   0.94550   0.36558551E+00
   0.94650   0.37612376E+00
   0.94750   0.38104922E+00
   0.94850   0.38102996E+00
   0.94950   0.37790182E+00
   0.95050   0.37356493E+00
   0.95150   0.36938915E+00
   0.95250   0.36613432E+00
   0.95350   0.36419660E+00
   0.95450   0.36393750E+00
   0.95550   0.36593768E+00
   0.95650   0.37014407E+00
   0.95750   0.37594008E+00
   0.95850   0.38347185E+00
   0.95950   0.39288241E+00
   0.96050   0.40414676E+00
   0.96150   0.41710082E+00
   0.96250   0.43148544E+00
   0.96350   0.44699433E+00
   0.96450   0.46333393E+00
   0.96550   0.48031351E+00
   0.96650   0.49795437E+00
   0.96750   0.51655167E+00
   0.96850   0.53656751E+00
   0.96950   0.55821717E+00
   0.97050   0.58080643E+00
   0.97150   0.60245746E+00
   0.97250   0.62094468E+00
   0.97350   0.63483518E+00
   0.97450   0.64458692E+00
   0.97550   0.65354770E+00
   0.97650   0.66236377E+00
   0.97750   0.66858757E+00
   0.97850   0.67080569E+00
   0.97950   0.66822392E+00
   0.98050   0.66225624E+00
   0.98150   0.65760148E+00
   0.98250   0.65994066E+00
   0.98350   0.67413878E+00
   0.98450   0.70028234E+00
   0.98550   0.72761643E+00
   0.98650   0.74799031E+00
   0.98750   0.76142180E+00
   0.98850   0.76789606E+00
   0.98950   0.77066350E+00
   0.99050   0.77542466E+00
   0.99150   0.78373504E+00
   0.99250   0.79400158E+00
   0.99350   0.80484134E+00
   0.99450   0.81631774E+00
   0.99550   0.82957977E+00
   0.99650   0.84504151E+00
   0.99750   0.86154246E+00
   0.99850   0.87970471E+00
   0.99950   0.90008998E+00
