# Transmission, k-averaged
# Date: 2021-05-13
#   E [eV]           T [G0]
   0.00050   0.28598506E-01
   0.00150   0.16647130E-01
   0.00250   0.11703324E-01
   0.00350   0.97650699E-02
   0.00450   0.88771395E-02
   0.00550   0.84102582E-02
   0.00650   0.81376033E-02
   0.00750   0.79661962E-02
   0.00850   0.78536430E-02
   0.00950   0.77789030E-02
   0.01050   0.77307988E-02
   0.01150   0.77030798E-02
   0.01250   0.76921205E-02
   0.01350   0.76957834E-02
   0.01450   0.77128303E-02
   0.01550   0.77425968E-02
   0.01650   0.77848160E-02
   0.01750   0.78395177E-02
   0.01850   0.79069734E-02
   0.01950   0.79876687E-02
   0.02050   0.80822958E-02
   0.02150   0.81917616E-02
   0.02250   0.83172051E-02
   0.02350   0.84600290E-02
   0.02450   0.86219441E-02
   0.02550   0.88050300E-02
   0.02650   0.90118144E-02
   0.02750   0.92453854E-02
   0.02850   0.95095327E-02
   0.02950   0.98089473E-02
   0.03050   0.10149497E-01
   0.03150   0.10538604E-01
   0.03250   0.10985798E-01
   0.03350   0.11503518E-01
   0.03450   0.12108323E-01
   0.03550   0.12822788E-01
   0.03650   0.13678553E-01
   0.03750   0.14721503E-01
   0.03850   0.16021036E-01
   0.03950   0.17687796E-01
   0.04050   0.19910697E-01
   0.04150   0.23043236E-01
   0.04250   0.27836362E-01
   0.04350   0.36193080E-01
   0.04450   0.53792603E-01
   0.04550   0.88248357E-01
   0.04650   0.12330219E+00
   0.04750   0.14992096E+00
   0.04850   0.17046030E+00
   0.04950   0.18693192E+00
   0.05050   0.20051883E+00
   0.05150   0.21194549E+00
   0.05250   0.22168423E+00
   0.05350   0.23005971E+00
   0.05450   0.23730457E+00
   0.05550   0.24359107E+00
   0.05650   0.24905004E+00
   0.05750   0.25378284E+00
   0.05850   0.25786927E+00
   0.05950   0.26137275E+00
   0.06050   0.26434410E+00
   0.06150   0.26682425E+00
   0.06250   0.26884601E+00
   0.06350   0.27043563E+00
   0.06450   0.27161378E+00
   0.06550   0.27239639E+00
   0.06650   0.27279532E+00
   0.06750   0.27281865E+00
   0.06850   0.27247128E+00
   0.06950   0.27175504E+00
   0.07050   0.27066889E+00
   0.07150   0.26920927E+00
   0.07250   0.26737002E+00
   0.07350   0.26514262E+00
   0.07450   0.26251635E+00
   0.07550   0.25947836E+00
   0.07650   0.25601393E+00
   0.07750   0.25210673E+00
   0.07850   0.24773924E+00
   0.07950   0.24289347E+00
   0.08050   0.23755178E+00
   0.08150   0.23169832E+00
   0.08250   0.22532117E+00
   0.08350   0.21841550E+00
   0.08450   0.21098860E+00
   0.08550   0.20306844E+00
   0.08650   0.19471896E+00
   0.08750   0.18607190E+00
   0.08850   0.17740563E+00
   0.08950   0.16939361E+00
   0.09050   0.16419637E+00
   0.09150   0.17225064E+00
   0.09250   0.20158358E+00
   0.09350   0.19150992E+00
   0.09450   0.18614873E+00
   0.09550   0.18444692E+00
   0.09650   0.18405835E+00
   0.09750   0.18471751E+00
   0.09850   0.18673383E+00
   0.09950   0.19052501E+00
   0.10050   0.19643395E+00
   0.10150   0.20463833E+00
   0.10250   0.21511130E+00
   0.10350   0.22762482E+00
   0.10450   0.24178857E+00
   0.10550   0.25711215E+00
   0.10650   0.27307418E+00
   0.10750   0.28918326E+00
   0.10850   0.30502078E+00
   0.10950   0.32026285E+00
   0.11050   0.33468351E+00
   0.11150   0.34814516E+00
   0.11250   0.36058155E+00
   0.11350   0.37197909E+00
   0.11450   0.38235915E+00
   0.11550   0.39176336E+00
   0.11650   0.40024245E+00
   0.11750   0.40784845E+00
   0.11850   0.41462970E+00
   0.11950   0.42062828E+00
   0.12050   0.42587876E+00
   0.12150   0.43040821E+00
   0.12250   0.43423688E+00
   0.12350   0.43737918E+00
   0.12450   0.43984488E+00
   0.12550   0.44164017E+00
   0.12650   0.44276884E+00
   0.12750   0.44323325E+00
   0.12850   0.44303501E+00
   0.12950   0.44217566E+00
   0.13050   0.44065726E+00
   0.13150   0.43848255E+00
   0.13250   0.43565533E+00
   0.13350   0.43218052E+00
   0.13450   0.42806414E+00
   0.13550   0.42331335E+00
   0.13650   0.41793644E+00
   0.13750   0.41194254E+00
   0.13850   0.40534171E+00
   0.13950   0.39814484E+00
   0.14050   0.39036363E+00
   0.14150   0.38201064E+00
   0.14250   0.37309963E+00
   0.14350   0.36364573E+00
   0.14450   0.35366625E+00
   0.14550   0.34318131E+00
   0.14650   0.33221498E+00
   0.14750   0.32079664E+00
   0.14850   0.30896264E+00
   0.14950   0.29675835E+00
   0.15050   0.28424051E+00
   0.15150   0.27147949E+00
   0.15250   0.25856221E+00
   0.15350   0.24559432E+00
   0.15450   0.23270249E+00
   0.15550   0.22003563E+00
   0.15650   0.20776501E+00
   0.15750   0.19608268E+00
   0.15850   0.18519776E+00
   0.15950   0.17533000E+00
   0.16050   0.16670097E+00
   0.16150   0.15952261E+00
   0.16250   0.15398420E+00
   0.16350   0.15023889E+00
   0.16450   0.14839146E+00
   0.16550   0.14848916E+00
   0.16650   0.15051748E+00
   0.16750   0.15440215E+00
   0.16850   0.16001861E+00
   0.16950   0.16720977E+00
   0.17050   0.17581482E+00
   0.17150   0.18571754E+00
   0.17250   0.19694386E+00
   0.17350   0.20991944E+00
   0.17450   0.22635542E+00
   0.17550   0.25168663E+00
   0.17650   0.28596210E+00
   0.17750   0.31616578E+00
   0.17850   0.34054512E+00
   0.17950   0.36043623E+00
   0.18050   0.37669060E+00
   0.18150   0.38975435E+00
   0.18250   0.39982843E+00
   0.18350   0.40694198E+00
   0.18450   0.41097125E+00
   0.18550   0.41161922E+00
   0.18650   0.40835309E+00
   0.18750   0.40029433E+00
   0.18850   0.38612047E+00
   0.18950   0.36458090E+00
   0.19050   0.33917692E+00
   0.19150   0.33523902E+00
   0.19250   0.38448173E+00
   0.19350   0.43889201E+00
   0.19450   0.45971084E+00
   0.19550   0.44918573E+00
   0.19650   0.42068064E+00
   0.19750   0.42093799E+00
   0.19850   0.45680192E+00
   0.19950   0.49314809E+00
   0.20050   0.51864034E+00
   0.20150   0.53467327E+00
   0.20250   0.54389411E+00
   0.20350   0.54822522E+00
   0.20450   0.54891783E+00
   0.20550   0.54677862E+00
   0.20650   0.54233068E+00
   0.20750   0.53591472E+00
   0.20850   0.52775240E+00
   0.20950   0.51798999E+00
   0.21050   0.50673360E+00
   0.21150   0.49409023E+00
   0.21250   0.48024181E+00
   0.21350   0.46562475E+00
   0.21450   0.45144734E+00
   0.21550   0.44140211E+00
   0.21650   0.44785440E+00
   0.21750   0.50363702E+00
   0.21850   0.59226596E+00
   0.21950   0.65236509E+00
   0.22050   0.69029343E+00
   0.22150   0.71617806E+00
   0.22250   0.73492241E+00
   0.22350   0.74903250E+00
   0.22450   0.75992322E+00
   0.22550   0.76845950E+00
   0.22650   0.77520227E+00
   0.22750   0.78053159E+00
   0.22850   0.78471452E+00
   0.22950   0.78794986E+00
   0.23050   0.79041374E+00
   0.23150   0.79235387E+00
   0.23250   0.79442555E+00
   0.23350   0.79934657E+00
   0.23450   0.82016736E+00
   0.23550   0.87261289E+00
   0.23650   0.92198437E+00
   0.23750   0.95030624E+00
   0.23850   0.96295083E+00
   0.23950   0.96922553E+00
   0.24050   0.97418922E+00
   0.24150   0.97907072E+00
   0.24250   0.98364049E+00
   0.24350   0.98744774E+00
   0.24450   0.99019140E+00
   0.24550   0.99177188E+00
   0.24650   0.99226034E+00
   0.24750   0.99185318E+00
   0.24850   0.99082643E+00
   0.24950   0.98949152E+00
   0.25050   0.98815399E+00
   0.25150   0.98707819E+00
   0.25250   0.98646116E+00
   0.25350   0.98641837E+00
   0.25450   0.98698103E+00
   0.25550   0.98810375E+00
   0.25650   0.98967892E+00
   0.25750   0.99155384E+00
   0.25850   0.99354815E+00
   0.25950   0.99546868E+00
   0.26050   0.99712169E+00
   0.26150   0.99832129E+00
   0.26250   0.99889511E+00
   0.26350   0.99868804E+00
   0.26450   0.99756414E+00
   0.26550   0.99540770E+00
   0.26650   0.99212486E+00
   0.26750   0.98764437E+00
   0.26850   0.98191953E+00
   0.26950   0.97493047E+00
   0.27050   0.96668679E+00
   0.27150   0.95723057E+00
   0.27250   0.94663906E+00
   0.27350   0.93502676E+00
   0.27450   0.92254591E+00
   0.27550   0.90938514E+00
   0.27650   0.89576548E+00
   0.27750   0.88193327E+00
   0.27850   0.86815012E+00
   0.27950   0.85468113E+00
   0.28050   0.84178126E+00
   0.28150   0.82968205E+00
   0.28250   0.81858039E+00
   0.28350   0.80862951E+00
   0.28450   0.79993504E+00
   0.28550   0.79255432E+00
   0.28650   0.78649998E+00
   0.28750   0.78174675E+00
   0.28850   0.77823991E+00
   0.28950   0.77590501E+00
   0.29050   0.77465773E+00
   0.29150   0.77441448E+00
   0.29250   0.77510476E+00
   0.29350   0.77668971E+00
   0.29450   0.77919823E+00
   0.29550   0.78281224E+00
   0.29650   0.78810877E+00
   0.29750   0.79689908E+00
   0.29850   0.81527609E+00
   0.29950   0.85059720E+00
   0.30050   0.88552761E+00
   0.30150   0.91185570E+00
   0.30250   0.93150944E+00
   0.30350   0.94616646E+00
   0.30450   0.95681816E+00
   0.30550   0.96407700E+00
   0.30650   0.96836990E+00
   0.30750   0.97005802E+00
   0.30850   0.96952826E+00
   0.30950   0.96727616E+00
   0.31050   0.96397537E+00
   0.31150   0.96049941E+00
   0.31250   0.95783168E+00
   0.31350   0.95680952E+00
   0.31450   0.95776004E+00
   0.31550   0.96025562E+00
   0.31650   0.96323490E+00
   0.31750   0.96545523E+00
   0.31850   0.96595889E+00
   0.31950   0.96428543E+00
   0.32050   0.96042597E+00
   0.32150   0.95466328E+00
   0.32250   0.94741869E+00
   0.32350   0.93914801E+00
   0.32450   0.93028462E+00
   0.32550   0.92121154E+00
   0.32650   0.91224915E+00
   0.32750   0.90364939E+00
   0.32850   0.89559215E+00
   0.32950   0.88818264E+00
   0.33050   0.88144863E+00
   0.33150   0.87533706E+00
   0.33250   0.86970931E+00
   0.33350   0.86433280E+00
   0.33450   0.85886759E+00
   0.33550   0.85284513E+00
   0.33650   0.84564507E+00
   0.33750   0.83650738E+00
   0.33850   0.82476485E+00
   0.33950   0.81108719E+00
   0.34050   0.80255234E+00
   0.34150   0.82453394E+00
   0.34250   0.90488595E+00
   0.34350   0.10029079E+01
   0.34450   0.10703387E+01
   0.34550   0.10884825E+01
   0.34650   0.10719818E+01
   0.34750   0.10514520E+01
   0.34850   0.10355885E+01
   0.34950   0.10239022E+01
   0.35050   0.10149784E+01
   0.35150   0.10078081E+01
   0.35250   0.10017617E+01
   0.35350   0.99645227E+00
   0.35450   0.99164420E+00
   0.35550   0.98720270E+00
   0.35650   0.98307532E+00
   0.35750   0.97930169E+00
   0.35850   0.97606963E+00
   0.35950   0.97387689E+00
   0.36050   0.97402507E+00
   0.36150   0.98037839E+00
   0.36250   0.10044240E+01
   0.36350   0.10479053E+01
   0.36450   0.10837445E+01
   0.36550   0.11087826E+01
   0.36650   0.11267140E+01
   0.36750   0.11399250E+01
   0.36850   0.11498322E+01
   0.36950   0.11573330E+01
   0.37050   0.11630375E+01
   0.37150   0.11673908E+01
   0.37250   0.11707407E+01
   0.37350   0.11733810E+01
   0.37450   0.11755838E+01
   0.37550   0.11776295E+01
   0.37650   0.11798447E+01
   0.37750   0.11826689E+01
   0.37850   0.11867958E+01
   0.37950   0.11935532E+01
   0.38050   0.12061466E+01
   0.38150   0.12341074E+01
   0.38250   0.12904212E+01
   0.38350   0.13493997E+01
   0.38450   0.13959233E+01
   0.38550   0.14319543E+01
   0.38650   0.14587649E+01
   0.38750   0.14767184E+01
   0.38850   0.14870261E+01
   0.38950   0.14927278E+01
   0.39050   0.14975758E+01
   0.39150   0.15040063E+01
   0.39250   0.15125072E+01
   0.39350   0.15223910E+01
   0.39450   0.15326754E+01
   0.39550   0.15425160E+01
   0.39650   0.15513093E+01
   0.39750   0.15586694E+01
   0.39850   0.15643816E+01
   0.39950   0.15683646E+01
   0.40050   0.15706450E+01
   0.40150   0.15713366E+01
   0.40250   0.15706190E+01
   0.40350   0.15687140E+01
   0.40450   0.15658581E+01
   0.40550   0.15622766E+01
   0.40650   0.15581634E+01
   0.40750   0.15536714E+01
   0.40850   0.15489188E+01
   0.40950   0.15440164E+01
   0.41050   0.15391312E+01
   0.41150   0.15346495E+01
   0.41250   0.15316863E+01
   0.41350   0.15340203E+01
   0.41450   0.15504261E+01
   0.41550   0.15719804E+01
   0.41650   0.15852510E+01
   0.41750   0.15912108E+01
   0.41850   0.15918964E+01
   0.41950   0.15887043E+01
   0.42050   0.15827507E+01
   0.42150   0.15752056E+01
   0.42250   0.15675693E+01
   0.42350   0.15618300E+01
   0.42450   0.15602471E+01
   0.42550   0.15644491E+01
   0.42650   0.15741367E+01
   0.42750   0.15867229E+01
   0.42850   0.15987492E+01
   0.42950   0.16077520E+01
   0.43050   0.16128927E+01
   0.43150   0.16144514E+01
   0.43250   0.16131248E+01
   0.43350   0.16096067E+01
   0.43450   0.16044352E+01
   0.43550   0.15979811E+01
   0.43650   0.15904849E+01
   0.43750   0.15821011E+01
   0.43850   0.15729395E+01
   0.43950   0.15630975E+01
   0.44050   0.15526862E+01
   0.44150   0.15418504E+01
   0.44250   0.15307815E+01
   0.44350   0.15197222E+01
   0.44450   0.15089620E+01
   0.44550   0.14988226E+01
   0.44650   0.14896331E+01
   0.44750   0.14816993E+01
   0.44850   0.14752723E+01
   0.44950   0.14705215E+01
   0.45050   0.14675195E+01
   0.45150   0.14662416E+01
   0.45250   0.14665766E+01
   0.45350   0.14683487E+01
   0.45450   0.14713433E+01
   0.45550   0.14753306E+01
   0.45650   0.14800858E+01
   0.45750   0.14854026E+01
   0.45850   0.14910992E+01
   0.45950   0.14970201E+01
   0.46050   0.15030334E+01
   0.46150   0.15090257E+01
   0.46250   0.15148964E+01
   0.46350   0.15205511E+01
   0.46450   0.15258967E+01
   0.46550   0.15308369E+01
   0.46650   0.15352687E+01
   0.46750   0.15390803E+01
   0.46850   0.15421510E+01
   0.46950   0.15443515E+01
   0.47050   0.15455464E+01
   0.47150   0.15455987E+01
   0.47250   0.15443769E+01
   0.47350   0.15417644E+01
   0.47450   0.15376740E+01
   0.47550   0.15320659E+01
   0.47650   0.15249698E+01
   0.47750   0.15165106E+01
   0.47850   0.15069317E+01
   0.47950   0.14966134E+01
   0.48050   0.14860762E+01
   0.48150   0.14759603E+01
   0.48250   0.14669764E+01
   0.48350   0.14598281E+01
   0.48450   0.14551128E+01
   0.48550   0.14532145E+01
   0.48650   0.14541986E+01
   0.48750   0.14577035E+01
   0.48850   0.14628203E+01
   0.48950   0.14679774E+01
   0.49050   0.14710177E+01
   0.49150   0.14700859E+01
   0.49250   0.14656347E+01
   0.49350   0.14598055E+01
   0.49450   0.14526806E+01
   0.49550   0.14454333E+01
   0.49650   0.14431683E+01
   0.49750   0.14553797E+01
   0.49850   0.14973940E+01
   0.49950   0.15511643E+01
   0.50050   0.15915643E+01
   0.50150   0.16214441E+01
   0.50250   0.16448615E+01
   0.50350   0.16641289E+01
   0.50450   0.16805826E+01
   0.50550   0.16950358E+01
   0.50650   0.17079989E+01
   0.50750   0.17197917E+01
   0.50850   0.17306063E+01
   0.50950   0.17405450E+01
   0.51050   0.17496456E+01
   0.51150   0.17579006E+01
   0.51250   0.17652726E+01
   0.51350   0.17717072E+01
   0.51450   0.17771469E+01
   0.51550   0.17815502E+01
   0.51650   0.17849264E+01
   0.51750   0.17874215E+01
   0.51850   0.17895781E+01
   0.51950   0.17933098E+01
   0.52050   0.18056659E+01
   0.52150   0.18350381E+01
   0.52250   0.18636397E+01
   0.52350   0.18839543E+01
   0.52450   0.18980640E+01
   0.52550   0.19080366E+01
   0.52650   0.19156334E+01
   0.52750   0.19227581E+01
   0.52850   0.19316778E+01
   0.52950   0.19446528E+01
   0.53050   0.19629362E+01
   0.53150   0.19868135E+01
   0.53250   0.20201433E+01
   0.53350   0.20735264E+01
   0.53450   0.21275775E+01
   0.53550   0.21650968E+01
   0.53650   0.21875813E+01
   0.53750   0.21965535E+01
   0.53850   0.21980267E+01
   0.53950   0.22046797E+01
   0.54050   0.22192795E+01
   0.54150   0.22358534E+01
   0.54250   0.22509792E+01
   0.54350   0.22639897E+01
   0.54450   0.22750299E+01
   0.54550   0.22843106E+01
   0.54650   0.22919426E+01
   0.54750   0.22979305E+01
   0.54850   0.23022027E+01
   0.54950   0.23046486E+01
   0.55050   0.23051641E+01
   0.55150   0.23037033E+01
   0.55250   0.23003335E+01
   0.55350   0.22952728E+01
   0.55450   0.22888880E+01
   0.55550   0.22816367E+01
   0.55650   0.22739661E+01
   0.55750   0.22662094E+01
   0.55850   0.22585294E+01
   0.55950   0.22509236E+01
   0.56050   0.22432792E+01
   0.56150   0.22354453E+01
   0.56250   0.22272944E+01
   0.56350   0.22187629E+01
   0.56450   0.22098660E+01
   0.56550   0.22006946E+01
   0.56650   0.21913977E+01
   0.56750   0.21821573E+01
   0.56850   0.21731615E+01
   0.56950   0.21645799E+01
   0.57050   0.21565461E+01
   0.57150   0.21491520E+01
   0.57250   0.21424506E+01
   0.57350   0.21364708E+01
   0.57450   0.21312354E+01
   0.57550   0.21267784E+01
   0.57650   0.21231556E+01
   0.57750   0.21204429E+01
   0.57850   0.21187210E+01
   0.57950   0.21180532E+01
   0.58050   0.21184573E+01
   0.58150   0.21198845E+01
   0.58250   0.21222093E+01
   0.58350   0.21252334E+01
   0.58450   0.21286974E+01
   0.58550   0.21322999E+01
   0.58650   0.21357145E+01
   0.58750   0.21386013E+01
   0.58850   0.21406126E+01
   0.58950   0.21413939E+01
   0.59050   0.21405790E+01
   0.59150   0.21377852E+01
   0.59250   0.21326129E+01
   0.59350   0.21246512E+01
   0.59450   0.21135030E+01
   0.59550   0.20988336E+01
   0.59650   0.20804594E+01
   0.59750   0.20584738E+01
   0.59850   0.20334029E+01
   0.59950   0.20063298E+01
   0.60050   0.19788995E+01
   0.60150   0.19531080E+01
   0.60250   0.19308747E+01
   0.60350   0.19135532E+01
   0.60450   0.19016261E+01
   0.60550   0.18947326E+01
   0.60650   0.18919647E+01
   0.60750   0.18922371E+01
   0.60850   0.18945653E+01
   0.60950   0.18981979E+01
   0.61050   0.19026314E+01
   0.61150   0.19075686E+01
   0.61250   0.19128637E+01
   0.61350   0.19184953E+01
   0.61450   0.19245989E+01
   0.61550   0.19316617E+01
   0.61650   0.19412720E+01
   0.61750   0.19591335E+01
   0.61850   0.19965070E+01
   0.61950   0.20410557E+01
   0.62050   0.20846348E+01
   0.62150   0.21401978E+01
   0.62250   0.22264509E+01
   0.62350   0.23096049E+01
   0.62450   0.23682582E+01
   0.62550   0.24182374E+01
   0.62650   0.24668367E+01
   0.62750   0.25126383E+01
   0.62850   0.25511825E+01
   0.62950   0.25802274E+01
   0.63050   0.26005137E+01
   0.63150   0.26139522E+01
   0.63250   0.26222956E+01
   0.63350   0.26267729E+01
   0.63450   0.26281645E+01
   0.63550   0.26269584E+01
   0.63650   0.26234720E+01
   0.63750   0.26179352E+01
   0.63850   0.26105373E+01
   0.63950   0.26014578E+01
   0.64050   0.25908840E+01
   0.64150   0.25790231E+01
   0.64250   0.25661111E+01
   0.64350   0.25524180E+01
   0.64450   0.25382521E+01
   0.64550   0.25239618E+01
   0.64650   0.25099318E+01
   0.64750   0.24965746E+01
   0.64850   0.24843102E+01
   0.64950   0.24735363E+01
   0.65050   0.24645901E+01
   0.65150   0.24577041E+01
   0.65250   0.24529696E+01
   0.65350   0.24503155E+01
   0.65450   0.24495120E+01
   0.65550   0.24502003E+01
   0.65650   0.24519405E+01
   0.65750   0.24542687E+01
   0.65850   0.24567513E+01
   0.65950   0.24590259E+01
   0.66050   0.24608283E+01
   0.66150   0.24620059E+01
   0.66250   0.24625154E+01
   0.66350   0.24624164E+01
   0.66450   0.24618554E+01
   0.66550   0.24610469E+01
   0.66650   0.24602511E+01
   0.66750   0.24597471E+01
   0.66850   0.24598076E+01
   0.66950   0.24606729E+01
   0.67050   0.24625289E+01
   0.67150   0.24654946E+01
   0.67250   0.24696138E+01
   0.67350   0.24748595E+01
   0.67450   0.24811428E+01
   0.67550   0.24883263E+01
   0.67650   0.24962389E+01
   0.67750   0.25046885E+01
   0.67850   0.25134676E+01
   0.67950   0.25223598E+01
   0.68050   0.25311384E+01
   0.68150   0.25395682E+01
   0.68250   0.25474143E+01
   0.68350   0.25544834E+01
   0.68450   0.25607769E+01
   0.68550   0.25670953E+01
   0.68650   0.25777452E+01
   0.68750   0.26041553E+01
   0.68850   0.26331444E+01
   0.68950   0.26411939E+01
   0.69050   0.26231351E+01
   0.69150   0.26452000E+01
   0.69250   0.26601427E+01
   0.69350   0.26579978E+01
   0.69450   0.26486628E+01
   0.69550   0.26360364E+01
   0.69650   0.26222041E+01
   0.69750   0.26085310E+01
   0.69850   0.25957720E+01
   0.69950   0.25839591E+01
   0.70050   0.25723879E+01
   0.70150   0.25601037E+01
   0.70250   0.25473843E+01
   0.70350   0.25377970E+01
   0.70450   0.25394733E+01
   0.70550   0.25662947E+01
   0.70650   0.26095824E+01
   0.70750   0.26469400E+01
   0.70850   0.26764629E+01
   0.70950   0.26999040E+01
   0.71050   0.27192068E+01
   0.71150   0.27364907E+01
   0.71250   0.27536194E+01
   0.71350   0.27708757E+01
   0.71450   0.27859459E+01
   0.71550   0.27953489E+01
   0.71650   0.27969952E+01
   0.71750   0.27906148E+01
   0.71850   0.27764642E+01
   0.71950   0.27543254E+01
   0.72050   0.27235663E+01
   0.72150   0.26845686E+01
   0.72250   0.26414523E+01
   0.72350   0.26032593E+01
   0.72450   0.25791042E+01
   0.72550   0.25713849E+01
   0.72650   0.25764282E+01
   0.72750   0.25898647E+01
   0.72850   0.26095388E+01
   0.72950   0.26357315E+01
   0.73050   0.26713915E+01
   0.73150   0.27250309E+01
   0.73250   0.28113008E+01
   0.73350   0.29003363E+01
   0.73450   0.29620750E+01
   0.73550   0.30045917E+01
   0.73650   0.30347877E+01
   0.73750   0.30562019E+01
   0.73850   0.30707915E+01
   0.73950   0.30798628E+01
   0.74050   0.30845990E+01
   0.74150   0.30863502E+01
   0.74250   0.30866511E+01
   0.74350   0.30869291E+01
   0.74450   0.30881042E+01
   0.74550   0.30904086E+01
   0.74650   0.30935459E+01
   0.74750   0.30969992E+01
   0.74850   0.31002669E+01
   0.74950   0.31029627E+01
   0.75050   0.31048229E+01
   0.75150   0.31056819E+01
   0.75250   0.31054502E+01
   0.75350   0.31041026E+01
   0.75450   0.31016765E+01
   0.75550   0.30982749E+01
   0.75650   0.30940697E+01
   0.75750   0.30892956E+01
   0.75850   0.30842388E+01
   0.75950   0.30792129E+01
   0.76050   0.30745242E+01
   0.76150   0.30704360E+01
   0.76250   0.30671310E+01
   0.76350   0.30646873E+01
   0.76450   0.30630660E+01
   0.76550   0.30621183E+01
   0.76650   0.30616071E+01
   0.76750   0.30612366E+01
   0.76850   0.30606863E+01
   0.76950   0.30596428E+01
   0.77050   0.30578249E+01
   0.77150   0.30550039E+01
   0.77250   0.30510135E+01
   0.77350   0.30457563E+01
   0.77450   0.30392032E+01
   0.77550   0.30313883E+01
   0.77650   0.30224061E+01
   0.77750   0.30124235E+01
   0.77850   0.30017354E+01
   0.77950   0.29909813E+01
   0.78050   0.29819720E+01
   0.78150   0.29810829E+01
   0.78250   0.30000758E+01
   0.78350   0.30220912E+01
   0.78450   0.30337806E+01
   0.78550   0.30376687E+01
   0.78650   0.30375047E+01
   0.78750   0.30377784E+01
   0.78850   0.30439720E+01
   0.78950   0.30593622E+01
   0.79050   0.30805943E+01
   0.79150   0.31008215E+01
   0.79250   0.31164560E+01
   0.79350   0.31276686E+01
   0.79450   0.31357644E+01
   0.79550   0.31417773E+01
   0.79650   0.31462390E+01
   0.79750   0.31493075E+01
   0.79850   0.31509085E+01
   0.79950   0.31508284E+01
   0.80050   0.31487620E+01
   0.80150   0.31443322E+01
   0.80250   0.31370971E+01
   0.80350   0.31265662E+01
   0.80450   0.31122420E+01
   0.80550   0.30937278E+01
   0.80650   0.30709414E+01
   0.80750   0.30444653E+01
   0.80850   0.30159762E+01
   0.80950   0.29885151E+01
   0.81050   0.29661849E+01
   0.81150   0.29530244E+01
   0.81250   0.29514825E+01
   0.81350   0.29614596E+01
   0.81450   0.29804900E+01
   0.81550   0.30047042E+01
   0.81650   0.30299270E+01
   0.81750   0.30526135E+01
   0.81850   0.30705707E+01
   0.81950   0.30833540E+01
   0.82050   0.30921724E+01
   0.82150   0.30992379E+01
   0.82250   0.31067882E+01
   0.82350   0.31165247E+01
   0.82450   0.31305659E+01
   0.82550   0.31553349E+01
   0.82650   0.31940768E+01
   0.82750   0.32257721E+01
   0.82850   0.32467103E+01
   0.82950   0.32608747E+01
   0.83050   0.32708638E+01
   0.83150   0.32781906E+01
   0.83250   0.32837560E+01
   0.83350   0.32880945E+01
   0.83450   0.32915165E+01
   0.83550   0.32941997E+01
   0.83650   0.32962611E+01
   0.83750   0.32978108E+01
   0.83850   0.32990036E+01
   0.83950   0.33001020E+01
   0.84050   0.33016152E+01
   0.84150   0.33047898E+01
   0.84250   0.33140712E+01
   0.84350   0.33439939E+01
   0.84450   0.33764939E+01
   0.84550   0.34155192E+01
   0.84650   0.34577522E+01
   0.84750   0.34992990E+01
   0.84850   0.35473104E+01
   0.84950   0.35537698E+01
   0.85050   0.35829580E+01
   0.85150   0.36034017E+01
   0.85250   0.36096029E+01
   0.85350   0.36124156E+01
   0.85450   0.36218176E+01
   0.85550   0.36346011E+01
   0.85650   0.36452065E+01
   0.85750   0.36696870E+01
   0.85850   0.36959198E+01
   0.85950   0.37119665E+01
   0.86050   0.37207570E+01
   0.86150   0.37254853E+01
   0.86250   0.37277684E+01
   0.86350   0.37282283E+01
   0.86450   0.37267904E+01
   0.86550   0.37226248E+01
   0.86650   0.37140689E+01
   0.86750   0.37001743E+01
   0.86850   0.36848915E+01
   0.86950   0.36745691E+01
   0.87050   0.36694922E+01
   0.87150   0.36665549E+01
   0.87250   0.36637187E+01
   0.87350   0.36601205E+01
   0.87450   0.36553626E+01
   0.87550   0.36491787E+01
   0.87650   0.36413350E+01
   0.87750   0.36315579E+01
   0.87850   0.36193256E+01
   0.87950   0.36033218E+01
   0.88050   0.35805545E+01
   0.88150   0.35468609E+01
   0.88250   0.35041778E+01
   0.88350   0.34689679E+01
   0.88450   0.34550450E+01
   0.88550   0.34580824E+01
   0.88650   0.34689279E+01
   0.88750   0.34822659E+01
   0.88850   0.34957485E+01
   0.88950   0.35082080E+01
   0.89050   0.35187426E+01
   0.89150   0.35261872E+01
   0.89250   0.35284998E+01
   0.89350   0.35217311E+01
   0.89450   0.34989967E+01
   0.89550   0.34546571E+01
   0.89650   0.34063120E+01
   0.89750   0.33992980E+01
   0.89850   0.34407635E+01
   0.89950   0.35095830E+01
   0.90050   0.36091461E+01
   0.90150   0.37243738E+01
   0.90250   0.38209474E+01
   0.90350   0.38922393E+01
   0.90450   0.39311123E+01
   0.90550   0.39447980E+01
   0.90650   0.39396505E+01
   0.90750   0.39265985E+01
   0.90850   0.39265857E+01
   0.90950   0.39474690E+01
   0.91050   0.39717374E+01
   0.91150   0.39885759E+01
   0.91250   0.39986191E+01
   0.91350   0.40043211E+01
   0.91450   0.40070744E+01
   0.91550   0.40074530E+01
   0.91650   0.40057249E+01
   0.91750   0.40021214E+01
   0.91850   0.39969270E+01
   0.91950   0.39904873E+01
   0.92050   0.39831929E+01
   0.92150   0.39754508E+01
   0.92250   0.39676542E+01
   0.92350   0.39601462E+01
   0.92450   0.39531763E+01
   0.92550   0.39468544E+01
   0.92650   0.39411047E+01
   0.92750   0.39356265E+01
   0.92850   0.39298644E+01
   0.92950   0.39230022E+01
   0.93050   0.39140100E+01
   0.93150   0.39018347E+01
   0.93250   0.38858767E+01
   0.93350   0.38667827E+01
   0.93450   0.38470576E+01
   0.93550   0.38304749E+01
   0.93650   0.38201590E+01
   0.93750   0.38170736E+01
   0.93850   0.38202765E+01
   0.93950   0.38281298E+01
   0.94050   0.38391840E+01
   0.94150   0.38524704E+01
   0.94250   0.38676941E+01
   0.94350   0.38865583E+01
   0.94450   0.39182379E+01
   0.94550   0.39654136E+01
   0.94650   0.39907875E+01
   0.94750   0.39864626E+01
   0.94850   0.39580486E+01
   0.94950   0.39136050E+01
   0.95050   0.38832200E+01
   0.95150   0.38972013E+01
   0.95250   0.39370899E+01
   0.95350   0.39811397E+01
   0.95450   0.40273318E+01
   0.95550   0.40873828E+01
   0.95650   0.41527553E+01
   0.95750   0.41972985E+01
   0.95850   0.42235823E+01
   0.95950   0.42367234E+01
   0.96050   0.42399225E+01
   0.96150   0.42356143E+01
   0.96250   0.42261410E+01
   0.96350   0.42139440E+01
   0.96450   0.42013736E+01
   0.96550   0.41902833E+01
   0.96650   0.41816902E+01
   0.96750   0.41757412E+01
   0.96850   0.41719894E+01
   0.96950   0.41697049E+01
   0.97050   0.41679354E+01
   0.97150   0.41653347E+01
   0.97250   0.41603274E+01
   0.97350   0.41529312E+01
   0.97450   0.41517186E+01
   0.97550   0.41865811E+01
   0.97650   0.42432919E+01
   0.97750   0.42700500E+01
   0.97850   0.42671437E+01
   0.97950   0.42453876E+01
   0.98050   0.42315168E+01
   0.98150   0.42524276E+01
   0.98250   0.42957797E+01
   0.98350   0.43373170E+01
   0.98450   0.43673501E+01
   0.98550   0.43841734E+01
   0.98650   0.43874788E+01
   0.98750   0.43784142E+01
   0.98850   0.43731508E+01
   0.98950   0.44093823E+01
   0.99050   0.44449139E+01
   0.99150   0.44685450E+01
   0.99250   0.44940910E+01
   0.99350   0.45382986E+01
   0.99450   0.46096630E+01
   0.99550   0.46440959E+01
   0.99650   0.46401258E+01
   0.99750   0.46284437E+01
   0.99850   0.46255841E+01
   0.99950   0.46320782E+01
