# Transmission, k-averaged
# Date: 2021-05-13
#   E [eV]           T [G0]
   0.00050   0.60953729E-01
   0.00150   0.57508197E-01
   0.00250   0.84788457E-01
   0.00350   0.67196354E-01
   0.00450   0.26868401E-01
   0.00550   0.52673101E-01
   0.00650   0.19976191E-01
   0.00750   0.36010332E-01
   0.00850   0.79443790E-02
   0.00950   0.72817802E-01
   0.01050   0.63610384E-02
   0.01150   0.39646891E-02
   0.01250   0.35661653E-01
   0.01350   0.60076374E-02
   0.01450   0.23112427E-02
   0.01550   0.42278101E-02
   0.01650   0.78495391E-01
   0.01750   0.49419589E-02
   0.01850   0.23156125E-02
   0.01950   0.31806147E-02
   0.02050   0.16245903E-01
   0.02150   0.24447132E-01
   0.02250   0.41979654E-02
   0.02350   0.27614811E-02
   0.02450   0.38056844E-02
   0.02550   0.13089952E-01
   0.02650   0.74351937E-01
   0.02750   0.84554991E-02
   0.02850   0.39057825E-02
   0.02950   0.35673487E-02
   0.03050   0.56984313E-02
   0.03150   0.20604147E-01
   0.03250   0.78899913E-01
   0.03350   0.11447072E-01
   0.03450   0.51184357E-02
   0.03550   0.41637649E-02
   0.03650   0.53501814E-02
   0.03750   0.11982976E-01
   0.03850   0.68538144E-01
   0.03950   0.30180968E-01
   0.04050   0.82413144E-02
   0.04150   0.48141987E-02
   0.04250   0.44839880E-02
   0.04350   0.64864689E-02
   0.04450   0.16603706E-01
   0.04550   0.29701559E-01
   0.04650   0.10448037E-01
   0.04750   0.49768509E-02
   0.04850   0.33785261E-02
   0.04950   0.29485913E-02
   0.05050   0.31319635E-02
   0.05150   0.38472838E-02
   0.05250   0.48980378E-02
   0.05350   0.52780095E-02
   0.05450   0.44036037E-02
   0.05550   0.33561375E-02
   0.05650   0.27319018E-02
   0.05750   0.25031613E-02
   0.05850   0.25863412E-02
   0.05950   0.29502253E-02
   0.06050   0.35475825E-02
   0.06150   0.41528032E-02
   0.06250   0.43521328E-02
   0.06350   0.40401826E-02
   0.06450   0.35629554E-02
   0.06550   0.32113255E-02
   0.06650   0.30723359E-02
   0.06750   0.31474421E-02
   0.06850   0.34126996E-02
   0.06950   0.37973740E-02
   0.07050   0.41374066E-02
   0.07150   0.42390521E-02
   0.07250   0.40875692E-02
   0.07350   0.38726816E-02
   0.07450   0.37880824E-02
   0.07550   0.39424021E-02
   0.07650   0.43926276E-02
   0.07750   0.51614018E-02
   0.07850   0.61938968E-02
   0.07950   0.73077749E-02
   0.08050   0.82765827E-02
   0.08150   0.90332339E-02
   0.08250   0.97159659E-02
   0.08350   0.10519357E-01
   0.08450   0.11570610E-01
   0.08550   0.12889392E-01
   0.08650   0.14381569E-01
   0.08750   0.15865922E-01
   0.08850   0.17158460E-01
   0.08950   0.18174186E-01
   0.09050   0.18940013E-01
   0.09150   0.19400960E-01
   0.09250   0.19030455E-01
   0.09350   0.18087178E-01
   0.09450   0.17215289E-01
   0.09550   0.16445503E-01
   0.09650   0.15723003E-01
   0.09750   0.15019306E-01
   0.09850   0.14331534E-01
   0.09950   0.13669512E-01
   0.10050   0.13044694E-01
   0.10150   0.12463860E-01
   0.10250   0.11927290E-01
   0.10350   0.11429759E-01
   0.10450   0.10962834E-01
   0.10550   0.10517345E-01
   0.10650   0.10085406E-01
   0.10750   0.96616484E-02
   0.10850   0.92435731E-02
   0.10950   0.88311424E-02
   0.11050   0.84258830E-02
   0.11150   0.80298679E-02
   0.11250   0.76448508E-02
   0.11350   0.72717532E-02
   0.11450   0.69105285E-02
   0.11550   0.65603387E-02
   0.11650   0.62199212E-02
   0.11750   0.58880206E-02
   0.11850   0.55637583E-02
   0.11950   0.52468660E-02
   0.12050   0.49377461E-02
   0.12150   0.46373662E-02
   0.12250   0.43470436E-02
   0.12350   0.40681907E-02
   0.12450   0.38020860E-02
   0.12550   0.35497251E-02
   0.12650   0.33117582E-02
   0.12750   0.30885120E-02
   0.12850   0.28800701E-02
   0.12950   0.26863725E-02
   0.13050   0.25073118E-02
   0.13150   0.23428018E-02
   0.13250   0.21928067E-02
   0.13350   0.20573358E-02
   0.13450   0.19364092E-02
   0.13550   0.18300102E-02
   0.13650   0.17380385E-02
   0.13750   0.16602740E-02
   0.13850   0.15963566E-02
   0.13950   0.15457820E-02
   0.14050   0.15079122E-02
   0.14150   0.14819942E-02
   0.14250   0.14671859E-02
   0.14350   0.14625841E-02
   0.14450   0.14672542E-02
   0.14550   0.14802591E-02
   0.14650   0.15006869E-02
   0.14750   0.15276730E-02
   0.14850   0.15604179E-02
   0.14950   0.15981951E-02
   0.15050   0.16403496E-02
   0.15150   0.16862906E-02
   0.15250   0.17354748E-02
   0.15350   0.17873890E-02
   0.15450   0.18415325E-02
   0.15550   0.18974049E-02
   0.15650   0.19544994E-02
   0.15750   0.20123075E-02
   0.15850   0.20703292E-02
   0.15950   0.21280919E-02
   0.16050   0.21851708E-02
   0.16150   0.22412087E-02
   0.16250   0.22959299E-02
   0.16350   0.23491434E-02
   0.16450   0.24007349E-02
   0.16550   0.24506436E-02
   0.16650   0.24988253E-02
   0.16750   0.25451994E-02
   0.16850   0.25895720E-02
   0.16950   0.26315206E-02
   0.17050   0.26701873E-02
   0.17150   0.27038483E-02
   0.17250   0.27288445E-02
   0.17350   0.27363803E-02
   0.17450   0.27009447E-02
   0.17550   0.25478958E-02
   0.17650   0.22721379E-02
   0.17750   0.20376004E-02
   0.17850   0.18621193E-02
   0.17950   0.17256236E-02
   0.18050   0.16151393E-02
   0.18150   0.15230256E-02
   0.18250   0.14445327E-02
   0.18350   0.13765305E-02
   0.18450   0.13168522E-02
   0.18550   0.12639367E-02
   0.18650   0.12166229E-02
   0.18750   0.11740236E-02
   0.18850   0.11354474E-02
   0.18950   0.11003455E-02
   0.19050   0.10682769E-02
   0.19150   0.10388835E-02
   0.19250   0.10118718E-02
   0.19350   0.98700018E-03
   0.19450   0.96406811E-03
   0.19550   0.94290893E-03
   0.19650   0.92338282E-03
   0.19750   0.90537226E-03
   0.19850   0.88877737E-03
   0.19950   0.87351276E-03
   0.20050   0.85950462E-03
   0.20150   0.84668846E-03
   0.20250   0.83500746E-03
   0.20350   0.82441128E-03
   0.20450   0.81485481E-03
   0.20550   0.80629793E-03
   0.20650   0.79870532E-03
   0.20750   0.79204619E-03
   0.20850   0.78629446E-03
   0.20950   0.78142941E-03
   0.21050   0.77743595E-03
   0.21150   0.77430526E-03
   0.21250   0.77203661E-03
   0.21350   0.77064114E-03
   0.21450   0.77015418E-03
   0.21550   0.77068328E-03
   0.21650   0.77263179E-03
   0.21750   0.77763532E-03
   0.21850   0.78696798E-03
   0.21950   0.79750561E-03
   0.22050   0.80828217E-03
   0.22150   0.81946328E-03
   0.22250   0.83124096E-03
   0.22350   0.84376743E-03
   0.22450   0.85718464E-03
   0.22550   0.87165547E-03
   0.22650   0.88739442E-03
   0.22750   0.90470194E-03
   0.22850   0.92400890E-03
   0.22950   0.94593741E-03
   0.23050   0.97138761E-03
   0.23150   0.10016430E-02
   0.23250   0.10383291E-02
   0.23350   0.10816783E-02
   0.23450   0.11146159E-02
   0.23550   0.10850708E-02
   0.23650   0.10195901E-02
   0.23750   0.95293124E-03
   0.23850   0.89125952E-03
   0.23950   0.83495700E-03
   0.24050   0.78353559E-03
   0.24150   0.73644327E-03
   0.24250   0.69319870E-03
   0.24350   0.65340009E-03
   0.24450   0.61671127E-03
   0.24550   0.58284675E-03
   0.24650   0.55155990E-03
   0.24750   0.52263431E-03
   0.24850   0.49587758E-03
   0.24950   0.47111697E-03
   0.25050   0.44819599E-03
   0.25150   0.42697243E-03
   0.25250   0.40731629E-03
   0.25350   0.38910858E-03
   0.25450   0.37224032E-03
   0.25550   0.35661145E-03
   0.25650   0.34213025E-03
   0.25750   0.32871251E-03
   0.25850   0.31628119E-03
   0.25950   0.30476553E-03
   0.26050   0.29410087E-03
   0.26150   0.28422807E-03
   0.26250   0.27509301E-03
   0.26350   0.26664638E-03
   0.26450   0.25884321E-03
   0.26550   0.25164252E-03
   0.26650   0.24500708E-03
   0.26750   0.23890317E-03
   0.26850   0.23330023E-03
   0.26950   0.22817071E-03
   0.27050   0.22348983E-03
   0.27150   0.21923541E-03
   0.27250   0.21538776E-03
   0.27350   0.21192944E-03
   0.27450   0.20884522E-03
   0.27550   0.20612197E-03
   0.27650   0.20374855E-03
   0.27750   0.20171577E-03
   0.27850   0.20001628E-03
   0.27950   0.19864464E-03
   0.28050   0.19759723E-03
   0.28150   0.19687225E-03
   0.28250   0.19646974E-03
   0.28350   0.19639166E-03
   0.28450   0.19664179E-03
   0.28550   0.19722592E-03
   0.28650   0.19815170E-03
   0.28750   0.19942872E-03
   0.28850   0.20106832E-03
   0.28950   0.20308318E-03
   0.29050   0.20548652E-03
   0.29150   0.20829015E-03
   0.29250   0.21150049E-03
   0.29350   0.21510941E-03
   0.29450   0.21907203E-03
   0.29550   0.22324803E-03
   0.29650   0.22722124E-03
   0.29750   0.22962960E-03
   0.29850   0.22546064E-03
   0.29950   0.20685764E-03
   0.30050   0.18597298E-03
   0.30150   0.17021305E-03
   0.30250   0.15842909E-03
   0.30350   0.14936739E-03
   0.30450   0.14224785E-03
   0.30550   0.13658151E-03
   0.30650   0.13204645E-03
   0.30750   0.12842046E-03
   0.30850   0.12554372E-03
   0.30950   0.12329678E-03
   0.31050   0.12158711E-03
   0.31150   0.12034011E-03
   0.31250   0.11949290E-03
   0.31350   0.11898958E-03
   0.31450   0.11877751E-03
   0.31550   0.11880398E-03
   0.31650   0.11901317E-03
   0.31750   0.11934325E-03
   0.31850   0.11972363E-03
   0.31950   0.12007249E-03
   0.32050   0.12029507E-03
   0.32150   0.12028339E-03
   0.32250   0.11991853E-03
   0.32350   0.11907719E-03
   0.32450   0.11764458E-03
   0.32550   0.11553547E-03
   0.32650   0.11272453E-03
   0.32750   0.10928357E-03
   0.32850   0.10541754E-03
   0.32950   0.10148336E-03
   0.33050   0.97969081E-04
   0.33150   0.95413394E-04
   0.33250   0.94265364E-04
   0.33350   0.94720141E-04
   0.33450   0.96600459E-04
   0.33550   0.99353740E-04
   0.33650   0.10218546E-03
   0.33750   0.10427669E-03
   0.33850   0.10499090E-03
   0.33950   0.10399184E-03
   0.34050   0.10125122E-03
   0.34150   0.96976728E-04
   0.34250   0.91509508E-04
   0.34350   0.85231070E-04
   0.34450   0.78498539E-04
   0.34550   0.71610091E-04
   0.34650   0.64793778E-04
   0.34750   0.58210680E-04
   0.34850   0.51965260E-04
   0.34950   0.46117704E-04
   0.35050   0.40695748E-04
   0.35150   0.35704696E-04
   0.35250   0.31135347E-04
   0.35350   0.26970036E-04
   0.35450   0.23187074E-04
   0.35550   0.19764100E-04
   0.35650   0.16680713E-04
   0.35750   0.13920971E-04
   0.35850   0.11476622E-04
   0.35950   0.93532317E-05
   0.36050   0.75864505E-05
   0.36150   0.63008188E-05
   0.36250   0.59305448E-05
   0.36350   0.69026137E-05
   0.36450   0.83781188E-05
   0.36550   0.99510407E-05
   0.36650   0.11611173E-04
   0.36750   0.13397716E-04
   0.36850   0.15356178E-04
   0.36950   0.17536115E-04
   0.37050   0.19993608E-04
   0.37150   0.22794669E-04
   0.37250   0.26019481E-04
   0.37350   0.29767949E-04
   0.37450   0.34167460E-04
   0.37550   0.39384264E-04
   0.37650   0.45640933E-04
   0.37750   0.53244337E-04
   0.37850   0.62631691E-04
   0.37950   0.74442876E-04
   0.38050   0.89566696E-04
   0.38150   0.10828020E-03
   0.38250   0.12452979E-03
   0.38350   0.13386570E-03
   0.38450   0.14140164E-03
   0.38550   0.14911270E-03
   0.38650   0.15743382E-03
   0.38750   0.16645530E-03
   0.38850   0.17615761E-03
   0.38950   0.18645740E-03
   0.39050   0.19721048E-03
   0.39150   0.20820387E-03
   0.39250   0.21914786E-03
   0.39350   0.22967636E-03
   0.39450   0.23936406E-03
   0.39550   0.24776894E-03
   0.39650   0.25450415E-03
   0.39750   0.25933085E-03
   0.39850   0.26224260E-03
   0.39950   0.26349476E-03
   0.40050   0.26353588E-03
   0.40150   0.26284106E-03
   0.40250   0.26171491E-03
   0.40350   0.26017110E-03
   0.40450   0.25795770E-03
   0.40550   0.25470715E-03
   0.40650   0.25011814E-03
   0.40750   0.24407907E-03
   0.40850   0.23669883E-03
   0.40950   0.22826482E-03
   0.41050   0.21916835E-03
   0.41150   0.20982053E-03
   0.41250   0.20050583E-03
   0.41350   0.19068188E-03
   0.41450   0.17625339E-03
   0.41550   0.15665575E-03
   0.41650   0.13836245E-03
   0.41750   0.12247343E-03
   0.41850   0.10846321E-03
   0.41950   0.95696261E-04
   0.42050   0.83509738E-04
   0.42150   0.71092618E-04
   0.42250   0.57262936E-04
   0.42350   0.40192248E-04
   0.42450   0.18360211E-04
   0.42550   0.27280016E-05
   0.42650   0.34320074E-04
   0.42750   0.73872419E-04
   0.42850   0.85925429E-04
   0.42950   0.87300410E-04
   0.43050   0.86433778E-04
   0.43150   0.85791020E-04
   0.43250   0.86241736E-04
   0.43350   0.88350134E-04
   0.43450   0.92821465E-04
   0.43550   0.10085056E-03
   0.43650   0.11479764E-03
   0.43750   0.14023564E-03
   0.43850   0.19404030E-03
   0.43950   0.32899491E-03
   0.44050   0.41145249E-03
   0.44150   0.34257674E-03
   0.44250   0.35787615E-03
   0.44350   0.40609541E-03
   0.44450   0.44095598E-03
   0.44550   0.42656297E-03
   0.44650   0.35353762E-03
   0.44750   0.26241873E-03
   0.44850   0.19849147E-03
   0.44950   0.29706862E-03
   0.45050   0.34878671E-02
   0.45150   0.36277927E-02
   0.45250   0.19531088E-02
   0.45350   0.92042639E-03
   0.45450   0.32758983E-03
   0.45550   0.33533189E-03
   0.45650   0.37367703E-03
   0.45750   0.39669694E-03
   0.45850   0.42054799E-03
   0.45950   0.45792051E-03
   0.46050   0.50013978E-03
   0.46150   0.53452089E-03
   0.46250   0.55546506E-03
   0.46350   0.56138815E-03
   0.46450   0.55239483E-03
   0.46550   0.53079874E-03
   0.46650   0.50088845E-03
   0.46750   0.46719058E-03
   0.46850   0.43314788E-03
   0.46950   0.40103775E-03
   0.47050   0.37235400E-03
   0.47150   0.34799209E-03
   0.47250   0.32826685E-03
   0.47350   0.31298908E-03
   0.47450   0.30166382E-03
   0.47550   0.29372136E-03
   0.47650   0.28866599E-03
   0.47750   0.28609767E-03
   0.47850   0.28565052E-03
   0.47950   0.28692841E-03
   0.48050   0.28948957E-03
   0.48150   0.29288625E-03
   0.48250   0.29672755E-03
   0.48350   0.30072677E-03
   0.48450   0.30470811E-03
   0.48550   0.30857272E-03
   0.48650   0.31223806E-03
   0.48750   0.31556387E-03
   0.48850   0.31826412E-03
   0.48950   0.31978948E-03
   0.49050   0.31918215E-03
   0.49150   0.31504754E-03
   0.49250   0.30625737E-03
   0.49350   0.29417273E-03
   0.49450   0.28194644E-03
   0.49550   0.26343798E-03
   0.49650   0.23404900E-03
   0.49750   0.20958028E-03
   0.49850   0.20110898E-03
   0.49950   0.20463020E-03
   0.50050   0.21093988E-03
   0.50150   0.21716621E-03
   0.50250   0.22283617E-03
   0.50350   0.22794277E-03
   0.50450   0.23258744E-03
   0.50550   0.23689702E-03
   0.50650   0.24099890E-03
   0.50750   0.24501266E-03
   0.50850   0.24904826E-03
   0.50950   0.25320821E-03
   0.51050   0.25759291E-03
   0.51150   0.26230799E-03
   0.51250   0.26747430E-03
   0.51350   0.27324018E-03
   0.51450   0.27979727E-03
   0.51550   0.28740385E-03
   0.51650   0.29642149E-03
   0.51750   0.30737638E-03
   0.51850   0.32104948E-03
   0.51950   0.33843456E-03
   0.52050   0.35841120E-03
   0.52150   0.36845362E-03
   0.52250   0.36689418E-03
   0.52350   0.36346796E-03
   0.52450   0.36089332E-03
   0.52550   0.35970108E-03
   0.52650   0.36002632E-03
   0.52750   0.36195572E-03
   0.52850   0.36560252E-03
   0.52950   0.37109994E-03
   0.53050   0.37848018E-03
   0.53150   0.38705344E-03
   0.53250   0.39202836E-03
   0.53350   0.37667667E-03
   0.53450   0.34792162E-03
   0.53550   0.32819578E-03
   0.53650   0.32124875E-03
   0.53750   0.32752648E-03
   0.53850   0.34615377E-03
   0.53950   0.37215912E-03
   0.54050   0.39482722E-03
   0.54150   0.40297752E-03
   0.54250   0.39389372E-03
   0.54350   0.37311163E-03
   0.54450   0.34733769E-03
   0.54550   0.32092552E-03
   0.54650   0.29603706E-03
   0.54750   0.27350517E-03
   0.54850   0.25347405E-03
   0.54950   0.23577925E-03
   0.55050   0.22014813E-03
   0.55150   0.20629397E-03
   0.55250   0.19395458E-03
   0.55350   0.18290407E-03
   0.55450   0.17295318E-03
   0.55550   0.16394515E-03
   0.55650   0.15575072E-03
   0.55750   0.14826316E-03
   0.55850   0.14139419E-03
   0.55950   0.13507051E-03
   0.56050   0.12923106E-03
   0.56150   0.12382491E-03
   0.56250   0.11880944E-03
   0.56350   0.11414906E-03
   0.56450   0.10981409E-03
   0.56550   0.10577989E-03
   0.56650   0.10202626E-03
   0.56750   0.98537013E-04
   0.56850   0.95299678E-04
   0.56950   0.92305534E-04
   0.57050   0.89549845E-04
   0.57150   0.87032531E-04
   0.57250   0.84759340E-04
   0.57350   0.82743885E-04
   0.57450   0.81011021E-04
   0.57550   0.79602454E-04
   0.57650   0.78586178E-04
   0.57750   0.78072342E-04
   0.57850   0.78239762E-04
   0.57950   0.79377198E-04
   0.58050   0.81931161E-04
   0.58150   0.86477638E-04
   0.58250   0.93243245E-04
   0.58350   0.10034171E-03
   0.58450   0.10217166E-03
   0.58550   0.95495059E-04
   0.58650   0.85237436E-04
   0.58750   0.76404009E-04
   0.58850   0.70068061E-04
   0.58950   0.65695014E-04
   0.59050   0.62637868E-04
   0.59150   0.60444629E-04
   0.59250   0.58833466E-04
   0.59350   0.57631838E-04
   0.59450   0.56732919E-04
   0.59550   0.56069272E-04
   0.59650   0.55597535E-04
   0.59750   0.55289551E-04
   0.59850   0.55127141E-04
   0.59950   0.55099114E-04
   0.60050   0.55199809E-04
   0.60150   0.55429093E-04
   0.60250   0.55794793E-04
   0.60350   0.56320736E-04
   0.60450   0.57071513E-04
   0.60550   0.58237394E-04
   0.60650   0.60505983E-04
   0.60750   0.67558765E-04
   0.60850   0.10699959E-03
   0.60950   0.12557294E-03
   0.61050   0.90422291E-04
   0.61150   0.14179290E-03
   0.61250   0.32563662E-03
   0.61350   0.48236360E-03
   0.61450   0.42164369E-03
   0.61550   0.37184614E-03
   0.61650   0.35647504E-03
   0.61750   0.35208015E-03
   0.61850   0.31555927E-03
   0.61950   0.25523469E-03
   0.62050   0.28253382E-03
   0.62150   0.27123635E-03
   0.62250   0.36463852E-03
   0.62350   0.44194347E-03
   0.62450   0.54810190E-03
   0.62550   0.40237613E-01
   0.62650   0.19056115E-01
   0.62750   0.10730120E-01
   0.62850   0.10980442E-01
   0.62950   0.10190151E-01
   0.63050   0.76999571E-02
   0.63150   0.65622027E-02
   0.63250   0.50670686E-02
   0.63350   0.44625052E-02
   0.63450   0.37837271E-02
   0.63550   0.34133836E-02
   0.63650   0.32386747E-02
   0.63750   0.30736364E-02
   0.63850   0.27965149E-02
   0.63950   0.24252532E-02
   0.64050   0.20931980E-02
   0.64150   0.18293513E-02
   0.64250   0.16320942E-02
   0.64350   0.15024007E-02
   0.64450   0.14254268E-02
   0.64550   0.13786640E-02
   0.64650   0.13466266E-02
   0.64750   0.13229275E-02
   0.64850   0.13044440E-02
   0.64950   0.12874919E-02
   0.65050   0.12683234E-02
   0.65150   0.12448378E-02
   0.65250   0.12169746E-02
   0.65350   0.11857719E-02
   0.65450   0.11523170E-02
   0.65550   0.11173516E-02
   0.65650   0.10814182E-02
   0.65750   0.10451113E-02
   0.65850   0.10091539E-02
   0.65950   0.97429834E-03
   0.66050   0.94117486E-03
   0.66150   0.91019837E-03
   0.66250   0.88156172E-03
   0.66350   0.85528876E-03
   0.66450   0.83130476E-03
   0.66550   0.80949388E-03
   0.66650   0.78973267E-03
   0.66750   0.77190209E-03
   0.66850   0.75588713E-03
   0.66950   0.74157183E-03
   0.67050   0.72883698E-03
   0.67150   0.71756175E-03
   0.67250   0.70762902E-03
   0.67350   0.69893344E-03
   0.67450   0.69138902E-03
   0.67550   0.68493723E-03
   0.67650   0.67955302E-03
   0.67750   0.67525171E-03
   0.67850   0.67209575E-03
   0.67950   0.67020213E-03
   0.68050   0.66975108E-03
   0.68150   0.67099306E-03
   0.68250   0.67424733E-03
   0.68350   0.67986135E-03
   0.68450   0.68799092E-03
   0.68550   0.69746119E-03
   0.68650   0.69918024E-03
   0.68750   0.65791869E-03
   0.68850   0.58127439E-03
   0.68950   0.51356951E-03
   0.69050   0.45931494E-03
   0.69150   0.41540098E-03
   0.69250   0.37921261E-03
   0.69350   0.34895714E-03
   0.69450   0.32341390E-03
   0.69550   0.30173943E-03
   0.69650   0.28334474E-03
   0.69750   0.26781953E-03
   0.69850   0.25488684E-03
   0.69950   0.24437797E-03
   0.70050   0.23622405E-03
   0.70150   0.23046136E-03
   0.70250   0.22724242E-03
   0.70350   0.22678326E-03
   0.70450   0.22863365E-03
   0.70550   0.22720172E-03
   0.70650   0.21721036E-03
   0.70750   0.20616951E-03
   0.70850   0.19660553E-03
   0.70950   0.18848249E-03
   0.71050   0.18151726E-03
   0.71150   0.17546404E-03
   0.71250   0.17013076E-03
   0.71350   0.16536719E-03
   0.71450   0.16105406E-03
   0.71550   0.15709583E-03
   0.71650   0.15341605E-03
   0.71750   0.14995450E-03
   0.71850   0.14666519E-03
   0.71950   0.14351490E-03
   0.72050   0.14048223E-03
   0.72150   0.13755671E-03
   0.72250   0.13473858E-03
   0.72350   0.13203887E-03
   0.72450   0.12948038E-03
   0.72550   0.12709979E-03
   0.72650   0.12495162E-03
   0.72750   0.12311569E-03
   0.72850   0.12171221E-03
   0.72950   0.12093654E-03
   0.73050   0.12115655E-03
   0.73150   0.12324701E-03
   0.73250   0.12921188E-03
   0.73350   0.13885854E-03
   0.73450   0.15141409E-03
   0.73550   0.17355738E-03
   0.73650   0.23621607E-03
   0.73750   0.44929326E-03
   0.73850   0.26744310E-03
   0.73950   0.34845932E-03
   0.74050   0.63137151E-03
   0.74150   0.14650513E-02
   0.74250   0.48557306E-02
   0.74350   0.67925262E-02
   0.74450   0.31782582E-02
   0.74550   0.91104110E-03
   0.74650   0.21130848E-02
   0.74750   0.60623665E-02
   0.74850   0.66019870E-01
   0.74950   0.51183663E-01
   0.75050   0.14427305E-01
   0.75150   0.92172604E-02
   0.75250   0.86192563E-02
   0.75350   0.76045603E-02
   0.75450   0.87116072E-02
   0.75550   0.94127450E-02
   0.75650   0.96048126E-02
   0.75750   0.10311045E-01
   0.75850   0.10300416E-01
   0.75950   0.10022104E-01
   0.76050   0.98075522E-02
   0.76150   0.94015170E-02
   0.76250   0.87666800E-02
   0.76350   0.80368882E-02
   0.76450   0.73651057E-02
   0.76550   0.67666573E-02
   0.76650   0.61948397E-02
   0.76750   0.56634434E-02
   0.76850   0.52218805E-02
   0.76950   0.48920373E-02
   0.77050   0.46692914E-02
   0.77150   0.45473236E-02
   0.77250   0.45224060E-02
   0.77350   0.45822486E-02
   0.77450   0.47004758E-02
   0.77550   0.48430548E-02
   0.77650   0.49799364E-02
   0.77750   0.50925184E-02
   0.77850   0.51730443E-02
   0.77950   0.52193576E-02
   0.78050   0.52279332E-02
   0.78150   0.51727397E-02
   0.78250   0.49751899E-02
   0.78350   0.47109299E-02
   0.78450   0.44819652E-02
   0.78550   0.42887642E-02
   0.78650   0.41206572E-02
   0.78750   0.39703799E-02
   0.78850   0.38338210E-02
   0.78950   0.37088150E-02
   0.79050   0.35940644E-02
   0.79150   0.34883453E-02
   0.79250   0.33901054E-02
   0.79350   0.32974666E-02
   0.79450   0.32085225E-02
   0.79550   0.31217418E-02
   0.79650   0.30362797E-02
   0.79750   0.29520565E-02
   0.79850   0.28695881E-02
   0.79950   0.27896794E-02
   0.80050   0.27131303E-02
   0.80150   0.26405719E-02
   0.80250   0.25724517E-02
   0.80350   0.25091229E-02
   0.80450   0.24509621E-02
   0.80550   0.23984443E-02
   0.80650   0.23521411E-02
   0.80750   0.23126407E-02
   0.80850   0.22804313E-02
   0.80950   0.22557960E-02
   0.81050   0.22387546E-02
   0.81150   0.22290719E-02
   0.81250   0.22263227E-02
   0.81350   0.22299925E-02
   0.81450   0.22395777E-02
   0.81550   0.22546542E-02
   0.81650   0.22748986E-02
   0.81750   0.23000685E-02
   0.81850   0.23299642E-02
   0.81950   0.23644113E-02
   0.82050   0.24032954E-02
   0.82150   0.24466792E-02
   0.82250   0.24950565E-02
   0.82350   0.25499214E-02
   0.82450   0.26154390E-02
   0.82550   0.27038970E-02
   0.82650   0.28277701E-02
   0.82750   0.29621988E-02
   0.82850   0.30987621E-02
   0.82950   0.32417162E-02
   0.83050   0.33951993E-02
   0.83150   0.35629603E-02
   0.83250   0.37489727E-02
   0.83350   0.39592725E-02
   0.83450   0.42221150E-02
   0.83550   0.28184753E-01
   0.83650   0.17928082E-01
   0.83750   0.14935460E-01
   0.83850   0.15897166E-01
   0.83950   0.18831929E-01
   0.84050   0.20943405E-01
   0.84150   0.22307096E-01
   0.84250   0.26107028E-01
   0.84350   0.39450701E-01
   0.84450   0.83317496E-01
   0.84550   0.82598150E-01
   0.84650   0.73970549E-01
   0.84750   0.58681317E-01
   0.84850   0.41961934E-01
   0.84950   0.42956207E-01
   0.85050   0.56179129E-01
   0.85150   0.62434889E-01
   0.85250   0.62881984E-01
   0.85350   0.68858340E-01
   0.85450   0.77444650E-01
   0.85550   0.81734069E-01
   0.85650   0.85470580E-01
   0.85750   0.97672857E-01
   0.85850   0.11969049E+00
   0.85950   0.11934482E+00
   0.86050   0.10700005E+00
   0.86150   0.97872458E-01
   0.86250   0.92379346E-01
   0.86350   0.89325242E-01
   0.86450   0.87449223E-01
   0.86550   0.85721515E-01
   0.86650   0.83352447E-01
   0.86750   0.79906210E-01
   0.86850   0.75555950E-01
   0.86950   0.70904948E-01
   0.87050   0.66509619E-01
   0.87150   0.62644467E-01
   0.87250   0.59363201E-01
   0.87350   0.56626704E-01
   0.87450   0.54375686E-01
   0.87550   0.52552529E-01
   0.87650   0.51106039E-01
   0.87750   0.49991637E-01
   0.87850   0.49163245E-01
   0.87950   0.48559926E-01
   0.88050   0.48102245E-01
   0.88150   0.47709558E-01
   0.88250   0.47328774E-01
   0.88350   0.46949789E-01
   0.88450   0.46593484E-01
   0.88550   0.46284359E-01
   0.88650   0.46030883E-01
   0.88750   0.45824621E-01
   0.88850   0.45652498E-01
   0.88950   0.45509778E-01
   0.89050   0.45404833E-01
   0.89150   0.45355026E-01
   0.89250   0.45378678E-01
   0.89350   0.45488704E-01
   0.89450   0.45690291E-01
   0.89550   0.45981854E-01
   0.89650   0.46357505E-01
   0.89750   0.46809729E-01
   0.89850   0.47332667E-01
   0.89950   0.47929835E-01
   0.90050   0.48639022E-01
   0.90150   0.49504776E-01
   0.90250   0.50435737E-01
   0.90350   0.51409010E-01
   0.90450   0.52438326E-01
   0.90550   0.53528916E-01
   0.90650   0.54694533E-01
   0.90750   0.55957347E-01
   0.90850   0.57351395E-01
   0.90950   0.58949541E-01
   0.91050   0.61094072E-01
   0.91150   0.72976507E-01
   0.91250   0.67733534E-01
   0.91350   0.68727829E-01
   0.91450   0.72570749E-01
   0.91550   0.78674972E-01
   0.91650   0.86037375E-01
   0.91750   0.88898733E-01
   0.91850   0.91481596E-01
   0.91950   0.97325996E-01
   0.92050   0.10445537E+00
   0.92150   0.11243287E+00
   0.92250   0.11925324E+00
   0.92350   0.11852729E+00
   0.92450   0.11131162E+00
   0.92550   0.10827747E+00
   0.92650   0.11162061E+00
   0.92750   0.12057858E+00
   0.92850   0.13717362E+00
   0.92950   0.16754311E+00
   0.93050   0.21188734E+00
   0.93150   0.23420413E+00
   0.93250   0.22985707E+00
   0.93350   0.22652571E+00
   0.93450   0.22898957E+00
   0.93550   0.24659088E+00
   0.93650   0.28009570E+00
   0.93750   0.32006642E+00
   0.93850   0.34701157E+00
   0.93950   0.36037013E+00
   0.94050   0.36763105E+00
   0.94150   0.37095124E+00
   0.94250   0.37450436E+00
   0.94350   0.37948057E+00
   0.94450   0.38595590E+00
   0.94550   0.39528090E+00
   0.94650   0.40394491E+00
   0.94750   0.40204462E+00
   0.94850   0.39094925E+00
   0.94950   0.38209474E+00
   0.95050   0.37989333E+00
   0.95150   0.38225418E+00
   0.95250   0.38647577E+00
   0.95350   0.39243126E+00
   0.95450   0.40227088E+00
   0.95550   0.41825324E+00
   0.95650   0.43992007E+00
   0.95750   0.46366897E+00
   0.95850   0.48635989E+00
   0.95950   0.50624990E+00
   0.96050   0.52288252E+00
   0.96150   0.53601283E+00
   0.96250   0.54568231E+00
   0.96350   0.55315375E+00
   0.96450   0.56027991E+00
   0.96550   0.56782126E+00
   0.96650   0.57501811E+00
   0.96750   0.58041453E+00
   0.96850   0.58281046E+00
   0.96950   0.58182347E+00
   0.97050   0.57806975E+00
   0.97150   0.57299894E+00
   0.97250   0.56831294E+00
   0.97350   0.56528491E+00
   0.97450   0.56447488E+00
   0.97550   0.56590760E+00
   0.97650   0.56923831E+00
   0.97750   0.57379115E+00
   0.97850   0.57929683E+00
   0.97950   0.58626145E+00
   0.98050   0.59575409E+00
   0.98150   0.60876185E+00
   0.98250   0.62567109E+00
   0.98350   0.64616662E+00
   0.98450   0.66903722E+00
   0.98550   0.69217461E+00
   0.98650   0.71393204E+00
   0.98750   0.73434412E+00
   0.98850   0.75408387E+00
   0.98950   0.77289784E+00
   0.99050   0.79038036E+00
   0.99150   0.80805522E+00
   0.99250   0.82572079E+00
   0.99350   0.84214264E+00
   0.99450   0.85534787E+00
   0.99550   0.86322427E+00
   0.99650   0.86420614E+00
   0.99750   0.85814214E+00
   0.99850   0.84786493E+00
   0.99950   0.83764583E+00
