# Transmission, k-averaged
# Date: 2021-05-13
#   E [eV]           T [G0]
   0.00050   0.13726404E-01
   0.00150   0.11321434E-01
   0.00250   0.37680219E-02
   0.00350   0.29512350E-02
   0.00450   0.32028963E-02
   0.00550   0.14446926E-02
   0.00650   0.81852009E-03
   0.00750   0.13624756E-01
   0.00850   0.45114954E-03
   0.00950   0.38019693E-03
   0.01050   0.29871343E-02
   0.01150   0.88166964E-03
   0.01250   0.24287976E-03
   0.01350   0.24544392E-03
   0.01450   0.76919794E-03
   0.01550   0.21309960E-02
   0.01650   0.31470382E-03
   0.01750   0.16308582E-03
   0.01850   0.16866397E-03
   0.01950   0.32198324E-03
   0.02050   0.90873061E-03
   0.02150   0.41906061E-03
   0.02250   0.16242427E-03
   0.02350   0.10666069E-03
   0.02450   0.10377093E-03
   0.02550   0.14059723E-03
   0.02650   0.23745401E-03
   0.02750   0.27747342E-03
   0.02850   0.15901958E-03
   0.02950   0.90929512E-04
   0.03050   0.65941931E-04
   0.03150   0.60039034E-04
   0.03250   0.66256485E-04
   0.03350   0.83218976E-04
   0.03450   0.10082396E-03
   0.03550   0.92543160E-04
   0.03650   0.66184322E-04
   0.03750   0.46576926E-04
   0.03850   0.36404570E-04
   0.03950   0.32359956E-04
   0.04050   0.32310134E-04
   0.04150   0.34848927E-04
   0.04250   0.37269292E-04
   0.04350   0.34513720E-04
   0.04450   0.24957160E-04
   0.04550   0.14525419E-04
   0.04650   0.86940145E-05
   0.04750   0.58440855E-05
   0.04850   0.42807164E-05
   0.04950   0.33210686E-05
   0.05050   0.26696937E-05
   0.05150   0.21851884E-05
   0.05250   0.17981945E-05
   0.05350   0.14771033E-05
   0.05450   0.12092934E-05
   0.05550   0.98926489E-06
   0.05650   0.81231417E-06
   0.05750   0.67262198E-06
   0.05850   0.56363547E-06
   0.05950   0.47895276E-06
   0.06050   0.41291801E-06
   0.06150   0.36083841E-06
   0.06250   0.31897173E-06
   0.06350   0.28442943E-06
   0.06450   0.25506989E-06
   0.06550   0.22939865E-06
   0.06650   0.20646254E-06
   0.06750   0.18572712E-06
   0.06850   0.16694254E-06
   0.06950   0.15001847E-06
   0.07050   0.13492699E-06
   0.07150   0.12164210E-06
   0.07250   0.11011061E-06
   0.07350   0.10024393E-06
   0.07450   0.91920022E-07
   0.07550   0.84988571E-07
   0.07650   0.79276766E-07
   0.07750   0.74595704E-07
   0.07850   0.70748470E-07
   0.07950   0.67540689E-07
   0.08050   0.64792886E-07
   0.08150   0.62352683E-07
   0.08250   0.60104540E-07
   0.08350   0.57975058E-07
   0.08450   0.55933530E-07
   0.08550   0.53988497E-07
   0.08650   0.52181758E-07
   0.08750   0.50580503E-07
   0.08850   0.49265125E-07
   0.08950   0.48297224E-07
   0.09050   0.47583427E-07
   0.09150   0.46138698E-07
   0.09250   0.40777390E-07
   0.09350   0.33511121E-07
   0.09450   0.27791033E-07
   0.09550   0.23541991E-07
   0.09650   0.20301204E-07
   0.09750   0.17733491E-07
   0.09850   0.15617172E-07
   0.09950   0.13807848E-07
   0.10050   0.12213794E-07
   0.10150   0.10779852E-07
   0.10250   0.94762225E-08
   0.10350   0.82901739E-08
   0.10450   0.72195787E-08
   0.10550   0.62677814E-08
   0.10650   0.54395648E-08
   0.10750   0.47381188E-08
   0.10850   0.41630011E-08
   0.10950   0.37090475E-08
   0.11050   0.33661582E-08
   0.11150   0.31198164E-08
   0.11250   0.29521541E-08
   0.11350   0.28433462E-08
   0.11450   0.27731286E-08
   0.11550   0.27222558E-08
   0.11650   0.26737694E-08
   0.11750   0.26139821E-08
   0.11850   0.25331335E-08
   0.11950   0.24256990E-08
   0.12050   0.22903603E-08
   0.12150   0.21296649E-08
   0.12250   0.19494164E-08
   0.12350   0.17578564E-08
   0.12450   0.15647081E-08
   0.12550   0.13801629E-08
   0.12650   0.12138965E-08
   0.12750   0.10741943E-08
   0.12850   0.96724895E-09
   0.12950   0.89668262E-09
   0.13050   0.86331170E-09
   0.13150   0.86515711E-09
   0.13250   0.89768043E-09
   0.13350   0.95421004E-09
   0.13450   0.10265150E-08
   0.13550   0.11054765E-08
   0.13650   0.11818077E-08
   0.13750   0.12467722E-08
   0.13850   0.12928545E-08
   0.13950   0.13143365E-08
   0.14050   0.13077450E-08
   0.14150   0.12721362E-08
   0.14250   0.12091975E-08
   0.14350   0.11231583E-08
   0.14450   0.10205120E-08
   0.14550   0.90957009E-09
   0.14650   0.79987567E-09
   0.14750   0.70151618E-09
   0.14850   0.62437838E-09
   0.14950   0.57739230E-09
   0.15050   0.56780797E-09
   0.15150   0.60054889E-09
   0.15250   0.67768097E-09
   0.15350   0.79803281E-09
   0.15450   0.95700181E-09
   0.15550   0.11465751E-08
   0.15650   0.13555906E-08
   0.15750   0.15702588E-08
   0.15850   0.17749513E-08
   0.15950   0.19532564E-08
   0.16050   0.20892781E-08
   0.16150   0.21691426E-08
   0.16250   0.21826512E-08
   0.16350   0.21249902E-08
   0.16450   0.19983921E-08
   0.16550   0.18135959E-08
   0.16650   0.15909314E-08
   0.16750   0.13607990E-08
   0.16850   0.11632774E-08
   0.16950   0.10465323E-08
   0.17050   0.10636247E-08
   0.17150   0.12671151E-08
   0.17250   0.17001366E-08
   0.17350   0.23792048E-08
   0.17450   0.32452785E-08
   0.17550   0.39856736E-08
   0.17650   0.41816950E-08
   0.17750   0.41595682E-08
   0.17850   0.40822905E-08
   0.17950   0.39471293E-08
   0.18050   0.37453409E-08
   0.18150   0.34779863E-08
   0.18250   0.31554037E-08
   0.18350   0.27952247E-08
   0.18450   0.24200393E-08
   0.18550   0.20547899E-08
   0.18650   0.17240481E-08
   0.18750   0.14494453E-08
   0.18850   0.12475463E-08
   0.18950   0.11284093E-08
   0.19050   0.10949648E-08
   0.19150   0.11432126E-08
   0.19250   0.12631219E-08
   0.19350   0.14400336E-08
   0.19450   0.16563321E-08
   0.19550   0.18931596E-08
   0.19650   0.21319919E-08
   0.19750   0.23559499E-08
   0.19850   0.25507803E-08
   0.19950   0.27054949E-08
   0.20050   0.28126890E-08
   0.20150   0.28685867E-08
   0.20250   0.28728706E-08
   0.20350   0.28283538E-08
   0.20450   0.27405429E-08
   0.20550   0.26171412E-08
   0.20650   0.24675202E-08
   0.20750   0.23021907E-08
   0.20850   0.21322883E-08
   0.20950   0.19690900E-08
   0.21050   0.18235724E-08
   0.21150   0.17060274E-08
   0.21250   0.16257576E-08
   0.21350   0.15909010E-08
   0.21450   0.16085122E-08
   0.21550   0.16852827E-08
   0.21650   0.18300319E-08
   0.21750   0.20545590E-08
   0.21850   0.23206674E-08
   0.21950   0.25640796E-08
   0.22050   0.27787326E-08
   0.22150   0.29666680E-08
   0.22250   0.31282479E-08
   0.22350   0.32632546E-08
   0.22450   0.33716212E-08
   0.22550   0.34537651E-08
   0.22650   0.35107248E-08
   0.22750   0.35441954E-08
   0.22850   0.35564909E-08
   0.22950   0.35504486E-08
   0.23050   0.35292707E-08
   0.23150   0.34962857E-08
   0.23250   0.34546461E-08
   0.23350   0.34076937E-08
   0.23450   0.33703944E-08
   0.23550   0.34092322E-08
   0.23650   0.35386007E-08
   0.23750   0.37142733E-08
   0.23850   0.39085202E-08
   0.23950   0.41033581E-08
   0.24050   0.42855484E-08
   0.24150   0.44452371E-08
   0.24250   0.45755661E-08
   0.24350   0.46725268E-08
   0.24450   0.47348419E-08
   0.24550   0.47638076E-08
   0.24650   0.47630824E-08
   0.24750   0.47384314E-08
   0.24850   0.46974638E-08
   0.24950   0.46493920E-08
   0.25050   0.46048858E-08
   0.25150   0.45760871E-08
   0.25250   0.45768962E-08
   0.25350   0.46236859E-08
   0.25450   0.47366764E-08
   0.25550   0.49423314E-08
   0.25650   0.52773692E-08
   0.25750   0.57953446E-08
   0.25850   0.65773897E-08
   0.25950   0.77497413E-08
   0.26050   0.95124291E-08
   0.26150   0.12186394E-07
   0.26250   0.16291164E-07
   0.26350   0.22673374E-07
   0.26450   0.32720326E-07
   0.26550   0.48716760E-07
   0.26650   0.74445275E-07
   0.26750   0.11620684E-06
   0.26850   0.18457860E-06
   0.26950   0.29749370E-06
   0.27050   0.48575345E-06
   0.27150   0.80314618E-06
   0.27250   0.13455815E-05
   0.27350   0.22884944E-05
   0.27450   0.39626716E-05
   0.27550   0.70138772E-05
   0.27650   0.12751156E-04
   0.27750   0.23926557E-04
   0.27850   0.46470974E-04
   0.27950   0.92989379E-04
   0.28050   0.18699007E-03
   0.28150   0.35274713E-03
   0.28250   0.54739829E-03
   0.28350   0.60400134E-03
   0.28450   0.45932693E-03
   0.28550   0.27160530E-03
   0.28650   0.14532420E-03
   0.28750   0.77222401E-04
   0.28850   0.42354546E-04
   0.28950   0.24242367E-04
   0.29050   0.14483723E-04
   0.29150   0.90061458E-05
   0.29250   0.58101236E-05
   0.29350   0.38802282E-05
   0.29450   0.26802436E-05
   0.29550   0.19159631E-05
   0.29650   0.14202263E-05
   0.29750   0.10951989E-05
   0.29850   0.88278512E-06
   0.29950   0.74998434E-06
   0.30050   0.67480306E-06
   0.30150   0.64231568E-06
   0.30250   0.64644547E-06
   0.30350   0.68692265E-06
   0.30450   0.76845822E-06
   0.30550   0.90130203E-06
   0.30650   0.11028782E-05
   0.30750   0.14007725E-05
   0.30850   0.18377473E-05
   0.30950   0.24800265E-05
   0.31050   0.34310835E-05
   0.31150   0.48549964E-05
   0.31250   0.70169594E-05
   0.31350   0.10355602E-04
   0.31450   0.15616544E-04
   0.31550   0.24109037E-04
   0.31650   0.38222879E-04
   0.31750   0.62530082E-04
   0.31850   0.10630068E-03
   0.31950   0.18976652E-03
   0.32050   0.36155383E-03
   0.32150   0.75488689E-03
   0.32250   0.18097427E-02
   0.32350   0.54984596E-02
   0.32450   0.27641730E-01
   0.32550   0.24745667E+00
   0.32650   0.56811407E-01
   0.32750   0.25887374E-01
   0.32850   0.20405265E-01
   0.32950   0.22514349E-01
   0.33050   0.33046585E-01
   0.33150   0.56862213E-01
   0.33250   0.71335502E-01
   0.33350   0.66025004E-01
   0.33450   0.29077118E-01
   0.33550   0.11715224E-01
   0.33650   0.88248542E-02
   0.33750   0.10105697E-01
   0.33850   0.14222478E-01
   0.33950   0.22325786E-01
   0.34050   0.49565802E-02
   0.34150   0.11121138E-01
   0.34250   0.38450137E-02
   0.34350   0.34504924E-02
   0.34450   0.29405679E-02
   0.34550   0.13240541E-02
   0.34650   0.65170822E-03
   0.34750   0.39521704E-03
   0.34850   0.33400211E-03
   0.34950   0.36013353E-03
   0.35050   0.34594163E-03
   0.35150   0.28822280E-03
   0.35250   0.26703454E-03
   0.35350   0.28636269E-03
   0.35450   0.31424809E-03
   0.35550   0.28841419E-03
   0.35650   0.21068795E-03
   0.35750   0.14092639E-03
   0.35850   0.93777671E-04
   0.35950   0.61465282E-04
   0.36050   0.39655548E-04
   0.36150   0.28428905E-04
   0.36250   0.26143178E-04
   0.36350   0.28651772E-04
   0.36450   0.32190113E-04
   0.36550   0.34475517E-04
   0.36650   0.34654262E-04
   0.36750   0.33149641E-04
   0.36850   0.31019383E-04
   0.36950   0.28992972E-04
   0.37050   0.27035687E-04
   0.37150   0.24609497E-04
   0.37250   0.21212940E-04
   0.37350   0.16808812E-04
   0.37450   0.11905982E-04
   0.37550   0.72961443E-05
   0.37650   0.36814668E-05
   0.37750   0.14248621E-05
   0.37850   0.48151429E-06
   0.37950   0.46674793E-06
   0.38050   0.81331535E-06
   0.38150   0.96893928E-06
   0.38250   0.66750619E-06
   0.38350   0.27770079E-06
   0.38450   0.11125071E-06
   0.38550   0.22130830E-06
   0.38650   0.56936443E-06
   0.38750   0.10717282E-05
   0.38850   0.16262633E-05
   0.38950   0.21343933E-05
   0.39050   0.25175732E-05
   0.39150   0.27270823E-05
   0.39250   0.27471019E-05
   0.39350   0.25920676E-05
   0.39450   0.22999332E-05
   0.39550   0.19231954E-05
   0.39650   0.15194114E-05
   0.39750   0.11426113E-05
   0.39850   0.83657164E-06
   0.39950   0.63048321E-06
   0.40050   0.53714723E-06
   0.40150   0.55351330E-06
   0.40250   0.66312953E-06
   0.40350   0.83992592E-06
   0.40450   0.10526852E-05
   0.40550   0.12695750E-05
   0.40650   0.14622005E-05
   0.40750   0.16087748E-05
   0.40850   0.16961600E-05
   0.40950   0.17206896E-05
   0.41050   0.16878114E-05
   0.41150   0.16106732E-05
   0.41250   0.15079504E-05
   0.41350   0.14040452E-05
   0.41450   0.13685858E-05
   0.41550   0.15560436E-05
   0.41650   0.19800611E-05
   0.41750   0.25763734E-05
   0.41850   0.32762507E-05
   0.41950   0.40100631E-05
   0.42050   0.47123654E-05
   0.42150   0.53280842E-05
   0.42250   0.58177743E-05
   0.42350   0.61611481E-05
   0.42450   0.63586631E-05
   0.42550   0.64312353E-05
   0.42650   0.64182773E-05
   0.42750   0.63743319E-05
   0.42850   0.63646498E-05
   0.42950   0.64601163E-05
   0.43050   0.67320257E-05
   0.43150   0.72472376E-05
   0.43250   0.80642294E-05
   0.43350   0.92304899E-05
   0.43450   0.10781523E-04
   0.43550   0.12741586E-04
   0.43650   0.15126111E-04
   0.43750   0.17945657E-04
   0.43850   0.21211195E-04
   0.43950   0.24940578E-04
   0.44050   0.29166051E-04
   0.44150   0.33942837E-04
   0.44250   0.39358962E-04
   0.44350   0.45546636E-04
   0.44450   0.52695916E-04
   0.44550   0.61071711E-04
   0.44650   0.71035975E-04
   0.44750   0.83077990E-04
   0.44850   0.97857308E-04
   0.44950   0.11626678E-03
   0.45050   0.13952750E-03
   0.45150   0.16933543E-03
   0.45250   0.20809313E-03
   0.45350   0.25928565E-03
   0.45450   0.32810794E-03
   0.45550   0.42254783E-03
   0.45650   0.55533013E-03
   0.45750   0.74756896E-03
   0.45850   0.10359982E-02
   0.45950   0.14881487E-02
   0.46050   0.22360682E-02
   0.46150   0.35519637E-02
   0.46250   0.59387316E-02
   0.46350   0.56490256E-02
   0.46450   0.49331047E-01
   0.46550   0.16275950E+00
   0.46650   0.15132008E+00
   0.46750   0.54241549E-01
   0.46850   0.27375938E-01
   0.46950   0.17895235E-01
   0.47050   0.13892860E-01
   0.47150   0.12329530E-01
   0.47250   0.12358978E-01
   0.47350   0.13912099E-01
   0.47450   0.16210001E-01
   0.47550   0.12876010E-01
   0.47650   0.69227256E-02
   0.47750   0.72711166E-02
   0.47850   0.75055468E-02
   0.47950   0.14836439E-02
   0.48050   0.23574675E-03
   0.48150   0.15977762E-02
   0.48250   0.29491817E-02
   0.48350   0.51620048E-02
   0.48450   0.72447932E-02
   0.48550   0.69116266E-02
   0.48650   0.59426469E-02
   0.48750   0.51276940E-02
   0.48850   0.34804232E-02
   0.48950   0.17409970E-02
   0.49050   0.81567845E-03
   0.49150   0.42065152E-03
   0.49250   0.26275759E-03
   0.49350   0.20664185E-03
   0.49450   0.17216020E-03
   0.49550   0.12581058E-03
   0.49650   0.83249513E-04
   0.49750   0.63855630E-04
   0.49850   0.79806552E-04
   0.49950   0.14099707E-03
   0.50050   0.24980993E-03
   0.50150   0.38693807E-03
   0.50250   0.51221868E-03
   0.50350   0.59171411E-03
   0.50450   0.61684166E-03
   0.50550   0.59651892E-03
   0.50650   0.54313440E-03
   0.50750   0.46703249E-03
   0.50850   0.37767220E-03
   0.50950   0.28569033E-03
   0.51050   0.20204988E-03
   0.51150   0.13470431E-03
   0.51250   0.86303000E-04
   0.51350   0.54839886E-04
   0.51450   0.35941626E-04
   0.51550   0.24927183E-04
   0.51650   0.17982982E-04
   0.51750   0.12642679E-04
   0.51850   0.78550975E-05
   0.51950   0.37518796E-05
   0.52050   0.11813572E-05
   0.52150   0.94941680E-06
   0.52250   0.26595933E-05
   0.52350   0.55680057E-05
   0.52450   0.91488655E-05
   0.52550   0.12916929E-04
   0.52650   0.16389731E-04
   0.52750   0.19129102E-04
   0.52850   0.20823525E-04
   0.52950   0.21370290E-04
   0.53050   0.20912181E-04
   0.53150   0.19807963E-04
   0.53250   0.18477898E-04
   0.53350   0.16656420E-04
   0.53450   0.14328832E-04
   0.53550   0.13035726E-04
   0.53650   0.13300240E-04
   0.53750   0.15036352E-04
   0.53850   0.17938019E-04
   0.53950   0.21609489E-04
   0.54050   0.25644318E-04
   0.54150   0.29685767E-04
   0.54250   0.33470129E-04
   0.54350   0.36852049E-04
   0.54450   0.39813425E-04
   0.54550   0.42460077E-04
   0.54650   0.45011806E-04
   0.54750   0.47792037E-04
   0.54850   0.51223313E-04
   0.54950   0.55835997E-04
   0.55050   0.62299674E-04
   0.55150   0.71492490E-04
   0.55250   0.84635489E-04
   0.55350   0.10354449E-03
   0.55450   0.13110881E-03
   0.55550   0.17224047E-03
   0.55650   0.23588094E-03
   0.55750   0.33962101E-03
   0.55850   0.52158057E-03
   0.55950   0.87578682E-03
   0.56050   0.16814043E-02
   0.56150   0.40419954E-02
   0.56250   0.14853958E-01
   0.56350   0.52284945E-01
   0.56450   0.15177769E-01
   0.56550   0.58563836E-02
   0.56650   0.33470802E-02
   0.56750   0.23878692E-02
   0.56850   0.19777117E-02
   0.56950   0.18429763E-02
   0.57050   0.19087513E-02
   0.57150   0.21910481E-02
   0.57250   0.27837432E-02
   0.57350   0.38409256E-02
   0.57450   0.52529201E-02
   0.57550   0.57037980E-02
   0.57650   0.43236241E-02
   0.57750   0.27573877E-02
   0.57850   0.17724506E-02
   0.57950   0.12125499E-02
   0.58050   0.88636082E-03
   0.58150   0.69198880E-03
   0.58250   0.58179273E-03
   0.58350   0.51944435E-03
   0.58450   0.44036811E-03
   0.58550   0.28076777E-03
   0.58650   0.17869017E-03
   0.58750   0.28814649E-03
   0.58850   0.12837679E-02
   0.58950   0.14527962E-02
   0.59050   0.92893775E-03
   0.59150   0.41021459E-03
   0.59250   0.11812181E-03
   0.59350   0.58091297E-04
   0.59450   0.11508165E-03
   0.59550   0.20980714E-03
   0.59650   0.34160953E-03
   0.59750   0.59170066E-03
   0.59850   0.10544512E-02
   0.59950   0.12628206E-02
   0.60050   0.93819748E-03
   0.60150   0.65565383E-03
   0.60250   0.48662839E-03
   0.60350   0.35239957E-03
   0.60450   0.23627287E-03
   0.60550   0.17318683E-03
   0.60650   0.15369624E-03
   0.60750   0.15158895E-03
   0.60850   0.15507430E-03
   0.60950   0.16219466E-03
   0.61050   0.17434874E-03
   0.61150   0.19178554E-03
   0.61250   0.21200927E-03
   0.61350   0.23310370E-03
   0.61450   0.25598219E-03
   0.61550   0.28262488E-03
   0.61650   0.31410001E-03
   0.61750   0.34839750E-03
   0.61850   0.37457157E-03
   0.61950   0.38383703E-03
   0.62050   0.38017955E-03
   0.62150   0.36652156E-03
   0.62250   0.35155858E-03
   0.62350   0.34771216E-03
   0.62450   0.34716964E-03
   0.62550   0.34445463E-03
   0.62650   0.33831535E-03
   0.62750   0.32831094E-03
   0.62850   0.31428222E-03
   0.62950   0.29638637E-03
   0.63050   0.27517296E-03
   0.63150   0.25157951E-03
   0.63250   0.22683895E-03
   0.63350   0.20235051E-03
   0.63450   0.17959339E-03
   0.63550   0.16016251E-03
   0.63650   0.14600631E-03
   0.63750   0.13999094E-03
   0.63850   0.14707379E-03
   0.63950   0.17681104E-03
   0.64050   0.24915225E-03
   0.64150   0.40909575E-03
   0.64250   0.76662475E-03
   0.64350   0.16015875E-02
   0.64450   0.34509271E-02
   0.64550   0.55883625E-02
   0.64650   0.48997952E-02
   0.64750   0.32324693E-02
   0.64850   0.21734885E-02
   0.64950   0.15780595E-02
   0.65050   0.12290550E-02
   0.65150   0.10142222E-02
   0.65250   0.87887293E-03
   0.65350   0.79536816E-03
   0.65450   0.74931863E-03
   0.65550   0.73344464E-03
   0.65650   0.74481434E-03
   0.65750   0.78367238E-03
   0.65850   0.85309229E-03
   0.65950   0.95903722E-03
   0.66050   0.11103512E-02
   0.66150   0.13175366E-02
   0.66250   0.15873612E-02
   0.66350   0.19074292E-02
   0.66450   0.22173806E-02
   0.66550   0.23936692E-02
   0.66650   0.23201627E-02
   0.66750   0.20159613E-02
   0.66850   0.16198402E-02
   0.66950   0.12524243E-02
   0.67050   0.95992215E-03
   0.67150   0.74162474E-03
   0.67250   0.58164663E-03
   0.67350   0.46311878E-03
   0.67450   0.37193275E-03
   0.67550   0.29764374E-03
   0.67650   0.23652766E-03
   0.67750   0.19723203E-03
   0.67850   0.19722014E-03
   0.67950   0.24731102E-03
   0.68050   0.34305186E-03
   0.68150   0.44405062E-03
   0.68250   0.47640721E-03
   0.68350   0.44593625E-03
   0.68450   0.43221607E-03
   0.68550   0.47541526E-03
   0.68650   0.43067447E-03
   0.68750   0.26472367E-03
   0.68850   0.17462847E-03
   0.68950   0.13590393E-03
   0.69050   0.11779390E-03
   0.69150   0.10857316E-03
   0.69250   0.10322994E-03
   0.69350   0.99604331E-04
   0.69450   0.96915166E-04
   0.69550   0.94950876E-04
   0.69650   0.93819166E-04
   0.69750   0.93872994E-04
   0.69850   0.95624193E-04
   0.69950   0.99560646E-04
   0.70050   0.10564677E-03
   0.70150   0.11193286E-03
   0.70250   0.11217374E-03
   0.70350   0.98694196E-04
   0.70450   0.78087636E-04
   0.70550   0.67901441E-04
   0.70650   0.77892633E-04
   0.70750   0.11060826E-03
   0.70850   0.16124759E-03
   0.70950   0.21632323E-03
   0.71050   0.25710376E-03
   0.71150   0.27359778E-03
   0.71250   0.27063419E-03
   0.71350   0.25855438E-03
   0.71450   0.24499820E-03
   0.71550   0.23388732E-03
   0.71650   0.22698955E-03
   0.71750   0.22517159E-03
   0.71850   0.22899489E-03
   0.71950   0.23891489E-03
   0.72050   0.25527921E-03
   0.72150   0.27821981E-03
   0.72250   0.30751052E-03
   0.72350   0.34249618E-03
   0.72450   0.38224092E-03
   0.72550   0.42600316E-03
   0.72650   0.47399389E-03
   0.72750   0.52824110E-03
   0.72850   0.59351721E-03
   0.72950   0.67884632E-03
   0.73050   0.80143445E-03
   0.73150   0.99975290E-03
   0.73250   0.13849617E-02
   0.73350   0.22523084E-02
   0.73450   0.42453390E-02
   0.73550   0.57296357E-02
   0.73650   0.31540692E-02
   0.73750   0.17749991E-02
   0.73850   0.13487394E-02
   0.73950   0.12439585E-02
   0.74050   0.12679842E-02
   0.74150   0.13603844E-02
   0.74250   0.15020947E-02
   0.74350   0.16900257E-02
   0.74450   0.19290951E-02
   0.74550   0.22293809E-02
   0.74650   0.26044014E-02
   0.74750   0.30680168E-02
   0.74850   0.36264872E-02
   0.74950   0.42602369E-02
   0.75050   0.48915269E-02
   0.75150   0.53547747E-02
   0.75250   0.54347226E-02
   0.75350   0.50248643E-02
   0.75450   0.42584543E-02
   0.75550   0.34032243E-02
   0.75650   0.26615325E-02
   0.75750   0.21093688E-02
   0.75850   0.17451572E-02
   0.75950   0.15435950E-02
   0.76050   0.14824478E-02
   0.76150   0.15481462E-02
   0.76250   0.17244667E-02
   0.76350   0.19665123E-02
   0.76450   0.21912365E-02
   0.76550   0.23321130E-02
   0.76650   0.23961102E-02
   0.76750   0.24323317E-02
   0.76850   0.24802876E-02
   0.76950   0.25574253E-02
   0.77050   0.26549369E-02
   0.77150   0.27256187E-02
   0.77250   0.27284198E-02
   0.77350   0.27143555E-02
   0.77450   0.27665391E-02
   0.77550   0.28943447E-02
   0.77650   0.30284107E-02
   0.77750   0.30935979E-02
   0.77850   0.30858000E-02
   0.77950   0.30440453E-02
   0.78050   0.29905350E-02
   0.78150   0.29306463E-02
   0.78250   0.28913326E-02
   0.78350   0.28715101E-02
   0.78450   0.28368286E-02
   0.78550   0.27843616E-02
   0.78650   0.27264783E-02
   0.78750   0.26874142E-02
   0.78850   0.27047778E-02
   0.78950   0.27472116E-02
   0.79050   0.26938040E-02
   0.79150   0.26227662E-02
   0.79250   0.25876034E-02
   0.79350   0.25823007E-02
   0.79450   0.25935571E-02
   0.79550   0.26079400E-02
   0.79650   0.26121845E-02
   0.79750   0.25945283E-02
   0.79850   0.25470315E-02
   0.79950   0.24676968E-02
   0.80050   0.23612003E-02
   0.80150   0.22378175E-02
   0.80250   0.21112065E-02
   0.80350   0.19962555E-02
   0.80450   0.19078419E-02
   0.80550   0.18604714E-02
   0.80650   0.18680998E-02
   0.80750   0.19431910E-02
   0.80850   0.20940534E-02
   0.80950   0.23198016E-02
   0.81050   0.26036487E-02
   0.81150   0.29082973E-02
   0.81250   0.31801993E-02
   0.81350   0.33665553E-02
   0.81450   0.34374078E-02
   0.81550   0.33967635E-02
   0.81650   0.32753285E-02
   0.81750   0.31135962E-02
   0.81850   0.29479775E-02
   0.81950   0.28049080E-02
   0.82050   0.27008958E-02
   0.82150   0.26449908E-02
   0.82250   0.26415593E-02
   0.82350   0.26929569E-02
   0.82450   0.28037964E-02
   0.82550   0.29946372E-02
   0.82650   0.33007737E-02
   0.82750   0.36788690E-02
   0.82850   0.40997220E-02
   0.82950   0.45653339E-02
   0.83050   0.50805560E-02
   0.83150   0.56497455E-02
   0.83250   0.62765395E-02
   0.83350   0.69636921E-02
   0.83450   0.77128792E-02
   0.83550   0.85245855E-02
   0.83650   0.93981093E-02
   0.83750   0.10331598E-01
   0.83850   0.11321935E-01
   0.83950   0.12364401E-01
   0.84050   0.13452217E-01
   0.84150   0.14576040E-01
   0.84250   0.15719881E-01
   0.84350   0.16835073E-01
   0.84450   0.17884152E-01
   0.84550   0.18903162E-01
   0.84650   0.19913135E-01
   0.84750   0.20893555E-01
   0.84850   0.21731813E-01
   0.84950   0.22357546E-01
   0.85050   0.22754507E-01
   0.85150   0.22878738E-01
   0.85250   0.22703569E-01
   0.85350   0.22251774E-01
   0.85450   0.21597933E-01
   0.85550   0.20834580E-01
   0.85650   0.20016918E-01
   0.85750   0.19126577E-01
   0.85850   0.18070990E-01
   0.85950   0.16729483E-01
   0.86050   0.15322307E-01
   0.86150   0.17856574E-01
   0.86250   0.16395641E-01
   0.86350   0.16735880E-01
   0.86450   0.17131355E-01
   0.86550   0.17507628E-01
   0.86650   0.19045968E-01
   0.86750   0.22624092E-01
   0.86850   0.26172159E-01
   0.86950   0.26576586E-01
   0.87050   0.25470670E-01
   0.87150   0.24422280E-01
   0.87250   0.23657035E-01
   0.87350   0.23100272E-01
   0.87450   0.22685053E-01
   0.87550   0.22367889E-01
   0.87650   0.22125768E-01
   0.87750   0.21982482E-01
   0.87850   0.22011241E-01
   0.87950   0.22279471E-01
   0.88050   0.22799095E-01
   0.88150   0.23530116E-01
   0.88250   0.24400378E-01
   0.88350   0.25305752E-01
   0.88450   0.26104759E-01
   0.88550   0.26636325E-01
   0.88650   0.26768833E-01
   0.88750   0.26456676E-01
   0.88850   0.25762225E-01
   0.88950   0.24822606E-01
   0.89050   0.23786532E-01
   0.89150   0.22766646E-01
   0.89250   0.21829363E-01
   0.89350   0.21010973E-01
   0.89450   0.20337557E-01
   0.89550   0.19835897E-01
   0.89650   0.19535214E-01
   0.89750   0.19465076E-01
   0.89850   0.19654006E-01
   0.89950   0.20132910E-01
   0.90050   0.20952493E-01
   0.90150   0.22139957E-01
   0.90250   0.23546802E-01
   0.90350   0.25040613E-01
   0.90450   0.26533544E-01
   0.90550   0.27946549E-01
   0.90650   0.29217703E-01
   0.90750   0.30316504E-01
   0.90850   0.31248996E-01
   0.90950   0.32052152E-01
   0.91050   0.32780755E-01
   0.91150   0.33492289E-01
   0.91250   0.34234107E-01
   0.91350   0.35034467E-01
   0.91450   0.35896990E-01
   0.91550   0.36798112E-01
   0.91650   0.37688404E-01
   0.91750   0.38499825E-01
   0.91850   0.39159998E-01
   0.91950   0.39610848E-01
   0.92050   0.39824620E-01
   0.92150   0.39805092E-01
   0.92250   0.39535381E-01
   0.92350   0.38665149E-01
   0.92450   0.35119075E-01
   0.92550   0.27560068E-01
   0.92650   0.26348045E-01
   0.92750   0.28321477E-01
   0.92850   0.30223379E-01
   0.92950   0.32012615E-01
   0.93050   0.33861373E-01
   0.93150   0.35873342E-01
   0.93250   0.38127042E-01
   0.93350   0.40696315E-01
   0.93450   0.43625798E-01
   0.93550   0.46866007E-01
   0.93650   0.50202850E-01
   0.93750   0.53273190E-01
   0.93850   0.55744864E-01
   0.93950   0.57553634E-01
   0.94050   0.58950443E-01
   0.94150   0.60308009E-01
   0.94250   0.61887518E-01
   0.94350   0.63734643E-01
   0.94450   0.65710492E-01
   0.94550   0.67583747E-01
   0.94650   0.69157608E-01
   0.94750   0.70313841E-01
   0.94850   0.71015082E-01
   0.94950   0.71288869E-01
   0.95050   0.71193814E-01
   0.95150   0.70787728E-01
   0.95250   0.70106812E-01
   0.95350   0.69158837E-01
   0.95450   0.67926913E-01
   0.95550   0.66424988E-01
   0.95650   0.65068498E-01
   0.95750   0.64178921E-01
   0.95850   0.63639335E-01
   0.95950   0.63323922E-01
   0.96050   0.63135944E-01
   0.96150   0.62998787E-01
   0.96250   0.62855229E-01
   0.96350   0.62671125E-01
   0.96450   0.62438533E-01
   0.96550   0.62172983E-01
   0.96650   0.61903268E-01
   0.96750   0.61657615E-01
   0.96850   0.61451547E-01
   0.96950   0.61279602E-01
   0.97050   0.61109487E-01
   0.97150   0.60873967E-01
   0.97250   0.60450703E-01
   0.97350   0.59604108E-01
   0.97450   0.57827424E-01
   0.97550   0.54179214E-01
   0.97650   0.49659859E-01
   0.97750   0.49890853E-01
   0.97850   0.52754376E-01
   0.97950   0.55060625E-01
   0.98050   0.57093345E-01
   0.98150   0.59521578E-01
   0.98250   0.62882990E-01
   0.98350   0.67694671E-01
   0.98450   0.74444897E-01
   0.98550   0.83158225E-01
   0.98650   0.92740387E-01
   0.98750   0.10186077E+00
   0.98850   0.11073614E+00
   0.98950   0.12040642E+00
   0.99050   0.13125561E+00
   0.99150   0.14327428E+00
   0.99250   0.15645823E+00
   0.99350   0.17067045E+00
   0.99450   0.18534733E+00
   0.99550   0.20043944E+00
   0.99650   0.21683943E+00
   0.99750   0.23533377E+00
   0.99850   0.25590050E+00
   0.99950   0.27570966E+00
