# Transmission, k-averaged
# Date: 2021-05-13
#   E [eV]           T [G0]
   0.00050   0.45298052E+00
   0.00150   0.39260298E+00
   0.00250   0.26754165E+00
   0.00350   0.20616007E+00
   0.00450   0.27370572E+00
   0.00550   0.25876021E+00
   0.00650   0.13805124E+00
   0.00750   0.63163139E-01
   0.00850   0.10259083E+00
   0.00950   0.55436242E-01
   0.01050   0.49501657E-01
   0.01150   0.41065391E-01
   0.01250   0.70749998E-01
   0.01350   0.22491042E-01
   0.01450   0.14888418E+00
   0.01550   0.34624450E-01
   0.01650   0.24037478E-01
   0.01750   0.14561591E+00
   0.01850   0.46671346E-01
   0.01950   0.21426592E-01
   0.02050   0.45932576E-01
   0.02150   0.19294280E+00
   0.02250   0.29820874E-01
   0.02350   0.20092735E-01
   0.02450   0.42333327E-01
   0.02550   0.22482194E+00
   0.02650   0.35130288E-01
   0.02750   0.17170984E-01
   0.02850   0.21238100E-01
   0.02950   0.78603558E-01
   0.03050   0.11287228E+00
   0.03150   0.21409057E-01
   0.03250   0.12644235E-01
   0.03350   0.15640238E-01
   0.03450   0.49064539E-01
   0.03550   0.15570125E+00
   0.03650   0.20955633E-01
   0.03750   0.96421596E-02
   0.03850   0.89204358E-02
   0.03950   0.16155064E-01
   0.04050   0.96407428E-01
   0.04150   0.49075440E-01
   0.04250   0.11807550E-01
   0.04350   0.79333223E-02
   0.04450   0.11222484E-01
   0.04550   0.33582356E-01
   0.04650   0.10514196E+00
   0.04750   0.73214561E-01
   0.04850   0.39028905E-01
   0.04950   0.29537428E-01
   0.05050   0.30006088E-01
   0.05150   0.38651075E-01
   0.05250   0.59032355E-01
   0.05350   0.89117654E-01
   0.05450   0.98448157E-01
   0.05550   0.82051978E-01
   0.05650   0.68449482E-01
   0.05750   0.64881943E-01
   0.05850   0.70957869E-01
   0.05950   0.87627776E-01
   0.06050   0.11605992E+00
   0.06150   0.14948532E+00
   0.06250   0.16736832E+00
   0.06350   0.16113125E+00
   0.06450   0.14708334E+00
   0.06550   0.13910066E+00
   0.06650   0.14155073E+00
   0.06750   0.15558507E+00
   0.06850   0.18147825E+00
   0.06950   0.21623558E+00
   0.07050   0.24907760E+00
   0.07150   0.26482445E+00
   0.07250   0.25986311E+00
   0.07350   0.24570142E+00
   0.07450   0.23475093E+00
   0.07550   0.23328051E+00
   0.07650   0.24339767E+00
   0.07750   0.26516116E+00
   0.07850   0.29611859E+00
   0.07950   0.32920113E+00
   0.08050   0.35291973E+00
   0.08150   0.35851291E+00
   0.08250   0.34808579E+00
   0.08350   0.33187616E+00
   0.08450   0.31958309E+00
   0.08550   0.31669244E+00
   0.08650   0.32537749E+00
   0.08750   0.34563041E+00
   0.08850   0.37479267E+00
   0.08950   0.40582415E+00
   0.09050   0.42707855E+00
   0.09150   0.42804003E+00
   0.09250   0.41146514E+00
   0.09350   0.39474946E+00
   0.09450   0.38664070E+00
   0.09550   0.38870978E+00
   0.09650   0.40025407E+00
   0.09750   0.41903925E+00
   0.09850   0.44126007E+00
   0.09950   0.46184164E+00
   0.10050   0.47585166E+00
   0.10150   0.48067531E+00
   0.10250   0.47726193E+00
   0.10350   0.46926868E+00
   0.10450   0.46100822E+00
   0.10550   0.45585069E+00
   0.10650   0.45565355E+00
   0.10750   0.46081534E+00
   0.10850   0.47047290E+00
   0.10950   0.48269457E+00
   0.11050   0.49480274E+00
   0.11150   0.50401264E+00
   0.11250   0.50833642E+00
   0.11350   0.50732940E+00
   0.11450   0.50218612E+00
   0.11550   0.49512932E+00
   0.11650   0.48853186E+00
   0.11750   0.48424289E+00
   0.11850   0.48327386E+00
   0.11950   0.48574379E+00
   0.12050   0.49094889E+00
   0.12150   0.49751174E+00
   0.12250   0.50365174E+00
   0.12350   0.50761491E+00
   0.12450   0.50819069E+00
   0.12550   0.50510532E+00
   0.12650   0.49907860E+00
   0.12750   0.49151334E+00
   0.12850   0.48400208E+00
   0.12950   0.47788632E+00
   0.13050   0.47398996E+00
   0.13150   0.47252116E+00
   0.13250   0.47308546E+00
   0.13350   0.47477785E+00
   0.13450   0.47635975E+00
   0.13550   0.47653520E+00
   0.13650   0.47429293E+00
   0.13750   0.46920565E+00
   0.13850   0.46155041E+00
   0.13950   0.45218620E+00
   0.14050   0.44225404E+00
   0.14150   0.43284234E+00
   0.14250   0.42473438E+00
   0.14350   0.41827601E+00
   0.14450   0.41334486E+00
   0.14550   0.40939280E+00
   0.14650   0.40555194E+00
   0.14750   0.40081075E+00
   0.14850   0.39425263E+00
   0.14950   0.38530469E+00
   0.15050   0.37390363E+00
   0.15150   0.36049727E+00
   0.15250   0.34587672E+00
   0.15350   0.33091956E+00
   0.15450   0.31635174E+00
   0.15550   0.30259585E+00
   0.15650   0.28971648E+00
   0.15750   0.27744198E+00
   0.15850   0.26524433E+00
   0.15950   0.25247258E+00
   0.16050   0.23853761E+00
   0.16150   0.22311905E+00
   0.16250   0.20632370E+00
   0.16350   0.18871115E+00
   0.16450   0.17115630E+00
   0.16550   0.15461253E+00
   0.16650   0.13989171E+00
   0.16750   0.12754321E+00
   0.16850   0.11783708E+00
   0.16950   0.11080569E+00
   0.17050   0.10629480E+00
   0.17150   0.10400213E+00
   0.17250   0.10351484E+00
   0.17350   0.10437563E+00
   0.17450   0.10620044E+00
   0.17550   0.10889865E+00
   0.17650   0.11288721E+00
   0.17750   0.11822486E+00
   0.17850   0.12464966E+00
   0.17950   0.13194089E+00
   0.18050   0.13987483E+00
   0.18150   0.14820412E+00
   0.18250   0.15666398E+00
   0.18350   0.16499664E+00
   0.18450   0.17298588E+00
   0.18550   0.18049081E+00
   0.18650   0.18746583E+00
   0.18750   0.19396041E+00
   0.18850   0.20009851E+00
   0.18950   0.20604604E+00
   0.19050   0.21197526E+00
   0.19150   0.21803454E+00
   0.19250   0.22432712E+00
   0.19350   0.23090054E+00
   0.19450   0.23774566E+00
   0.19550   0.24480484E+00
   0.19650   0.25198752E+00
   0.19750   0.25919104E+00
   0.19850   0.26632351E+00
   0.19950   0.27332467E+00
   0.20050   0.28017965E+00
   0.20150   0.28692371E+00
   0.20250   0.29363644E+00
   0.20350   0.30042768E+00
   0.20450   0.30741861E+00
   0.20550   0.31472224E+00
   0.20650   0.32242656E+00
   0.20750   0.33058369E+00
   0.20850   0.33920661E+00
   0.20950   0.34827474E+00
   0.21050   0.35775068E+00
   0.21150   0.36760896E+00
   0.21250   0.37788120E+00
   0.21350   0.38872901E+00
   0.21450   0.40057933E+00
   0.21550   0.41444403E+00
   0.21650   0.43284062E+00
   0.21750   0.46091750E+00
   0.21850   0.49302548E+00
   0.21950   0.51646703E+00
   0.22050   0.53283858E+00
   0.22150   0.54466200E+00
   0.22250   0.55328864E+00
   0.22350   0.55945301E+00
   0.22450   0.56356740E+00
   0.22550   0.56585884E+00
   0.22650   0.56644195E+00
   0.22750   0.56536555E+00
   0.22850   0.56264949E+00
   0.22950   0.55831599E+00
   0.23050   0.55241942E+00
   0.23150   0.54507065E+00
   0.23250   0.53645539E+00
   0.23350   0.52685273E+00
   0.23450   0.51673901E+00
   0.23550   0.50687087E+00
   0.23650   0.49722484E+00
   0.23750   0.48737437E+00
   0.23850   0.47700077E+00
   0.23950   0.46586803E+00
   0.24050   0.45388168E+00
   0.24150   0.44113898E+00
   0.24250   0.42791504E+00
   0.24350   0.41458291E+00
   0.24450   0.40150771E+00
   0.24550   0.38896653E+00
   0.24650   0.37712267E+00
   0.24750   0.36604804E+00
   0.24850   0.35576802E+00
   0.24950   0.34630227E+00
   0.25050   0.33768830E+00
   0.25150   0.32998690E+00
   0.25250   0.32327563E+00
   0.25350   0.31763765E+00
   0.25450   0.31315112E+00
   0.25550   0.30988124E+00
   0.25650   0.30787590E+00
   0.25750   0.30716363E+00
   0.25850   0.30775359E+00
   0.25950   0.30963641E+00
   0.26050   0.31278557E+00
   0.26150   0.31715846E+00
   0.26250   0.32269681E+00
   0.26350   0.32932609E+00
   0.26450   0.33695310E+00
   0.26550   0.34546188E+00
   0.26650   0.35470802E+00
   0.26750   0.36451495E+00
   0.26850   0.37468138E+00
   0.26950   0.38501841E+00
   0.27050   0.39543483E+00
   0.27150   0.40603766E+00
   0.27250   0.41708967E+00
   0.27350   0.42868742E+00
   0.27450   0.44048443E+00
   0.27550   0.45196325E+00
   0.27650   0.46289957E+00
   0.27750   0.47338027E+00
   0.27850   0.48354992E+00
   0.27950   0.49346900E+00
   0.28050   0.50311553E+00
   0.28150   0.51242888E+00
   0.28250   0.52134264E+00
   0.28350   0.52980006E+00
   0.28450   0.53775841E+00
   0.28550   0.54518765E+00
   0.28650   0.55206800E+00
   0.28750   0.55838633E+00
   0.28850   0.56413370E+00
   0.28950   0.56930280E+00
   0.29050   0.57388651E+00
   0.29150   0.57787663E+00
   0.29250   0.58126295E+00
   0.29350   0.58403343E+00
   0.29450   0.58617377E+00
   0.29550   0.58766830E+00
   0.29650   0.58850056E+00
   0.29750   0.58865750E+00
   0.29850   0.58814132E+00
   0.29950   0.58695799E+00
   0.30050   0.58501798E+00
   0.30150   0.58226931E+00
   0.30250   0.57869691E+00
   0.30350   0.57428181E+00
   0.30450   0.56900078E+00
   0.30550   0.56282789E+00
   0.30650   0.55573589E+00
   0.30750   0.54769754E+00
   0.30850   0.53868681E+00
   0.30950   0.52868038E+00
   0.31050   0.51765943E+00
   0.31150   0.50561196E+00
   0.31250   0.49253544E+00
   0.31350   0.47843972E+00
   0.31450   0.46335098E+00
   0.31550   0.44731560E+00
   0.31650   0.43040475E+00
   0.31750   0.41271910E+00
   0.31850   0.39439330E+00
   0.31950   0.37560034E+00
   0.32050   0.35655451E+00
   0.32150   0.33751318E+00
   0.32250   0.31877568E+00
   0.32350   0.30067962E+00
   0.32450   0.28359306E+00
   0.32550   0.26790279E+00
   0.32650   0.25399891E+00
   0.32750   0.24225566E+00
   0.32850   0.23301090E+00
   0.32950   0.22654514E+00
   0.33050   0.22306307E+00
   0.33150   0.22267939E+00
   0.33250   0.22541109E+00
   0.33350   0.23117696E+00
   0.33450   0.23980445E+00
   0.33550   0.25104287E+00
   0.33650   0.26458129E+00
   0.33750   0.28006852E+00
   0.33850   0.29713371E+00
   0.33950   0.31540471E+00
   0.34050   0.33452389E+00
   0.34150   0.35415974E+00
   0.34250   0.37401509E+00
   0.34350   0.39383119E+00
   0.34450   0.41338944E+00
   0.34550   0.43251014E+00
   0.34650   0.45105001E+00
   0.34750   0.46889865E+00
   0.34850   0.48597428E+00
   0.34950   0.50221962E+00
   0.35050   0.51759768E+00
   0.35150   0.53208810E+00
   0.35250   0.54568362E+00
   0.35350   0.55838740E+00
   0.35450   0.57021070E+00
   0.35550   0.58117127E+00
   0.35650   0.59129262E+00
   0.35750   0.60060519E+00
   0.35850   0.60915077E+00
   0.35950   0.61699700E+00
   0.36050   0.62428510E+00
   0.36150   0.63141328E+00
   0.36250   0.63966507E+00
   0.36350   0.64970767E+00
   0.36450   0.65870255E+00
   0.36550   0.66601855E+00
   0.36650   0.67196351E+00
   0.36750   0.67677855E+00
   0.36850   0.68061650E+00
   0.36950   0.68357563E+00
   0.37050   0.68572026E+00
   0.37150   0.68709171E+00
   0.37250   0.68771499E+00
   0.37350   0.68760276E+00
   0.37450   0.68675715E+00
   0.37550   0.68517178E+00
   0.37650   0.68283212E+00
   0.37750   0.67971641E+00
   0.37850   0.67579585E+00
   0.37950   0.67103469E+00
   0.38050   0.66539043E+00
   0.38150   0.65881878E+00
   0.38250   0.65129679E+00
   0.38350   0.64278275E+00
   0.38450   0.63319105E+00
   0.38550   0.62245268E+00
   0.38650   0.61050797E+00
   0.38750   0.59730476E+00
   0.38850   0.58280289E+00
   0.38950   0.56698143E+00
   0.39050   0.54984879E+00
   0.39150   0.53145528E+00
   0.39250   0.51190883E+00
   0.39350   0.49139294E+00
   0.39450   0.47018662E+00
   0.39550   0.44868305E+00
   0.39650   0.42740422E+00
   0.39750   0.40700579E+00
   0.39850   0.38826606E+00
   0.39950   0.37205249E+00
   0.40050   0.35926259E+00
   0.40150   0.35074037E+00
   0.40250   0.34717828E+00
   0.40350   0.34902197E+00
   0.40450   0.35639927E+00
   0.40550   0.36909214E+00
   0.40650   0.38656071E+00
   0.40750   0.40801340E+00
   0.40850   0.43250662E+00
   0.40950   0.45905095E+00
   0.41050   0.48670349E+00
   0.41150   0.51463443E+00
   0.41250   0.54216415E+00
   0.41350   0.56877589E+00
   0.41450   0.59411001E+00
   0.41550   0.61792070E+00
   0.41650   0.64006412E+00
   0.41750   0.66049260E+00
   0.41850   0.67921942E+00
   0.41950   0.69629830E+00
   0.42050   0.71180874E+00
   0.42150   0.72584510E+00
   0.42250   0.73850816E+00
   0.42350   0.74989957E+00
   0.42450   0.76011813E+00
   0.42550   0.76925707E+00
   0.42650   0.77740288E+00
   0.42750   0.78463435E+00
   0.42850   0.79102236E+00
   0.42950   0.79663014E+00
   0.43050   0.80151320E+00
   0.43150   0.80571973E+00
   0.43250   0.80929112E+00
   0.43350   0.81226212E+00
   0.43450   0.81466132E+00
   0.43550   0.81651145E+00
   0.43650   0.81782943E+00
   0.43750   0.81862676E+00
   0.43850   0.81890941E+00
   0.43950   0.81867808E+00
   0.44050   0.81792778E+00
   0.44150   0.81664801E+00
   0.44250   0.81482226E+00
   0.44350   0.81242776E+00
   0.44450   0.80943507E+00
   0.44550   0.80580729E+00
   0.44650   0.80149966E+00
   0.44750   0.79645872E+00
   0.44850   0.79062146E+00
   0.44950   0.78391439E+00
   0.45050   0.77625304E+00
   0.45150   0.76754129E+00
   0.45250   0.75767124E+00
   0.45350   0.74652433E+00
   0.45450   0.73397338E+00
   0.45550   0.71988779E+00
   0.45650   0.70414209E+00
   0.45750   0.68663096E+00
   0.45850   0.66729289E+00
   0.45950   0.64614612E+00
   0.46050   0.62334085E+00
   0.46150   0.59922963E+00
   0.46250   0.57445437E+00
   0.46350   0.55003661E+00
   0.46450   0.52744335E+00
   0.46550   0.50857645E+00
   0.46650   0.49562246E+00
   0.46750   0.49071935E+00
   0.46850   0.49547172E+00
   0.46950   0.51046109E+00
   0.47050   0.53497285E+00
   0.47150   0.56710207E+00
   0.47250   0.60421127E+00
   0.47350   0.64353126E+00
   0.47450   0.68266249E+00
   0.47550   0.71984184E+00
   0.47650   0.75398141E+00
   0.47750   0.78456336E+00
   0.47850   0.81148165E+00
   0.47950   0.83489031E+00
   0.48050   0.85508418E+00
   0.48150   0.87241757E+00
   0.48250   0.88725293E+00
   0.48350   0.89993274E+00
   0.48450   0.91076607E+00
   0.48550   0.92002350E+00
   0.48650   0.92793769E+00
   0.48750   0.93470615E+00
   0.48850   0.94049501E+00
   0.48950   0.94544327E+00
   0.49050   0.94966656E+00
   0.49150   0.95326030E+00
   0.49250   0.95630282E+00
   0.49350   0.95885718E+00
   0.49450   0.96097231E+00
   0.49550   0.96268189E+00
   0.49650   0.96399653E+00
   0.49750   0.96486843E+00
   0.49850   0.96511012E+00
   0.49950   0.96478707E+00
   0.50050   0.96420699E+00
   0.50150   0.96338862E+00
   0.50250   0.96228850E+00
   0.50350   0.96085852E+00
   0.50450   0.95904398E+00
   0.50550   0.95677876E+00
   0.50650   0.95397979E+00
   0.50750   0.95054102E+00
   0.50850   0.94632530E+00
   0.50950   0.94115454E+00
   0.51050   0.93479562E+00
   0.51150   0.92694306E+00
   0.51250   0.91719574E+00
   0.51350   0.90502995E+00
   0.51450   0.88977230E+00
   0.51550   0.87058705E+00
   0.51650   0.84651434E+00
   0.51750   0.81664234E+00
   0.51850   0.78056854E+00
   0.51950   0.73935241E+00
   0.52050   0.69694036E+00
   0.52150   0.66111636E+00
   0.52250   0.64175755E+00
   0.52350   0.64532632E+00
   0.52450   0.66999841E+00
   0.52550   0.70727772E+00
   0.52650   0.74793327E+00
   0.52750   0.78591537E+00
   0.52850   0.81863141E+00
   0.52950   0.84566170E+00
   0.53050   0.86756778E+00
   0.53150   0.88520360E+00
   0.53250   0.89940894E+00
   0.53350   0.91090876E+00
   0.53450   0.92027313E+00
   0.53550   0.92793500E+00
   0.53650   0.93423742E+00
   0.53750   0.93944609E+00
   0.53850   0.94376546E+00
   0.53950   0.94735295E+00
   0.54050   0.95032972E+00
   0.54150   0.95278937E+00
   0.54250   0.95480311E+00
   0.54350   0.95642495E+00
   0.54450   0.95769405E+00
   0.54550   0.95863706E+00
   0.54650   0.95926887E+00
   0.54750   0.95959324E+00
   0.54850   0.95960164E+00
   0.54950   0.95927161E+00
   0.55050   0.95856327E+00
   0.55150   0.95741338E+00
   0.55250   0.95572627E+00
   0.55350   0.95335811E+00
   0.55450   0.95009166E+00
   0.55550   0.94559294E+00
   0.55650   0.93933523E+00
   0.55750   0.93046457E+00
   0.55850   0.91756058E+00
   0.55950   0.89824522E+00
   0.56050   0.86878592E+00
   0.56150   0.82523429E+00
   0.56250   0.77323318E+00
   0.56350   0.75132537E+00
   0.56450   0.79637152E+00
   0.56550   0.86447734E+00
   0.56650   0.91356319E+00
   0.56750   0.94246948E+00
   0.56850   0.95910776E+00
   0.56950   0.96897519E+00
   0.57050   0.97506696E+00
   0.57150   0.97897226E+00
   0.57250   0.98155683E+00
   0.57350   0.98331130E+00
   0.57450   0.98452532E+00
   0.57550   0.98537642E+00
   0.57650   0.98597699E+00
   0.57750   0.98640072E+00
   0.57850   0.98669720E+00
   0.57950   0.98690116E+00
   0.58050   0.98703867E+00
   0.58150   0.98713195E+00
   0.58250   0.98720646E+00
   0.58350   0.98730493E+00
   0.58450   0.98752731E+00
   0.58550   0.98816925E+00
   0.58650   0.99029022E+00
   0.58750   0.99808657E+00
   0.58850   0.10163018E+01
   0.58950   0.10138383E+01
   0.59050   0.10045420E+01
   0.59150   0.10000743E+01
   0.59250   0.99817884E+00
   0.59350   0.99777293E+00
   0.59450   0.99948949E+00
   0.59550   0.10072721E+01
   0.59650   0.10010216E+01
   0.59750   0.99956280E+00
   0.59850   0.10002942E+01
   0.59950   0.10018535E+01
   0.60050   0.10040731E+01
   0.60150   0.10070083E+01
   0.60250   0.10107993E+01
   0.60350   0.10156730E+01
   0.60450   0.10220016E+01
   0.60550   0.10296385E+01
   0.60650   0.10416597E+01
   0.60750   0.10626144E+01
   0.60850   0.10751311E+01
   0.60950   0.10848734E+01
   0.61050   0.10923029E+01
   0.61150   0.11006565E+01
   0.61250   0.11065125E+01
   0.61350   0.11079015E+01
   0.61450   0.11046422E+01
   0.61550   0.11004498E+01
   0.61650   0.10983131E+01
   0.61750   0.10933423E+01
   0.61850   0.10885465E+01
   0.61950   0.10829344E+01
   0.62050   0.10703136E+01
   0.62150   0.10921593E+01
   0.62250   0.10873055E+01
   0.62350   0.10855888E+01
   0.62450   0.10853645E+01
   0.62550   0.10867206E+01
   0.62650   0.10901796E+01
   0.62750   0.10963259E+01
   0.62850   0.11041447E+01
   0.62950   0.11242533E+01
   0.63050   0.11541096E+01
   0.63150   0.12475406E+01
   0.63250   0.13646728E+01
   0.63350   0.14888015E+01
   0.63450   0.15856013E+01
   0.63550   0.16576048E+01
   0.63650   0.19030011E+01
   0.63750   0.19746265E+01
   0.63850   0.20184138E+01
   0.63950   0.20756621E+01
   0.64050   0.21459064E+01
   0.64150   0.22215583E+01
   0.64250   0.22879677E+01
   0.64350   0.23411686E+01
   0.64450   0.23846521E+01
   0.64550   0.24242127E+01
   0.64650   0.24638236E+01
   0.64750   0.25026653E+01
   0.64850   0.25386763E+01
   0.64950   0.25698383E+01
   0.65050   0.25956445E+01
   0.65150   0.26179802E+01
   0.65250   0.26392806E+01
   0.65350   0.26604061E+01
   0.65450   0.26804836E+01
   0.65550   0.26981280E+01
   0.65650   0.27125573E+01
   0.65750   0.27238522E+01
   0.65850   0.27325938E+01
   0.65950   0.27394295E+01
   0.66050   0.27448587E+01
   0.66150   0.27492099E+01
   0.66250   0.27526996E+01
   0.66350   0.27554922E+01
   0.66450   0.27577353E+01
   0.66550   0.27595723E+01
   0.66650   0.27611370E+01
   0.66750   0.27625403E+01
   0.66850   0.27638557E+01
   0.66950   0.27651155E+01
   0.67050   0.27663219E+01
   0.67150   0.27674680E+01
   0.67250   0.27685642E+01
   0.67350   0.27696500E+01
   0.67450   0.27707868E+01
   0.67550   0.27720380E+01
   0.67650   0.27734399E+01
   0.67750   0.27749851E+01
   0.67850   0.27766242E+01
   0.67950   0.27782850E+01
   0.68050   0.27799003E+01
   0.68150   0.27814348E+01
   0.68250   0.27828918E+01
   0.68350   0.27843072E+01
   0.68450   0.27857273E+01
   0.68550   0.27871912E+01
   0.68650   0.27887619E+01
   0.68750   0.27906821E+01
   0.68850   0.27929120E+01
   0.68950   0.27950664E+01
   0.69050   0.27970428E+01
   0.69150   0.27988319E+01
   0.69250   0.28004529E+01
   0.69350   0.28019381E+01
   0.69450   0.28033197E+01
   0.69550   0.28046186E+01
   0.69650   0.28058345E+01
   0.69750   0.28069482E+01
   0.69850   0.28079288E+01
   0.69950   0.28087456E+01
   0.70050   0.28093796E+01
   0.70150   0.28098319E+01
   0.70250   0.28101230E+01
   0.70350   0.28102944E+01
   0.70450   0.28104255E+01
   0.70550   0.28107214E+01
   0.70650   0.28111660E+01
   0.70750   0.28114326E+01
   0.70850   0.28114631E+01
   0.70950   0.28112800E+01
   0.71050   0.28109140E+01
   0.71150   0.28103926E+01
   0.71250   0.28097379E+01
   0.71350   0.28089633E+01
   0.71450   0.28080757E+01
   0.71550   0.28070755E+01
   0.71650   0.28059614E+01
   0.71750   0.28047311E+01
   0.71850   0.28033843E+01
   0.71950   0.28019238E+01
   0.72050   0.28003542E+01
   0.72150   0.27986832E+01
   0.72250   0.27969177E+01
   0.72350   0.27950652E+01
   0.72450   0.27931309E+01
   0.72550   0.27911198E+01
   0.72650   0.27890353E+01
   0.72750   0.27868814E+01
   0.72850   0.27846632E+01
   0.72950   0.27823923E+01
   0.73050   0.27800963E+01
   0.73150   0.27778652E+01
   0.73250   0.27759752E+01
   0.73350   0.27744117E+01
   0.73450   0.27727504E+01
   0.73550   0.27709415E+01
   0.73650   0.27690187E+01
   0.73750   0.27670078E+01
   0.73850   0.27649257E+01
   0.73950   0.27627842E+01
   0.74050   0.27605915E+01
   0.74150   0.27583542E+01
   0.74250   0.27560785E+01
   0.74350   0.27537706E+01
   0.74450   0.27514365E+01
   0.74550   0.27490828E+01
   0.74650   0.27467155E+01
   0.74750   0.27443407E+01
   0.74850   0.27419634E+01
   0.74950   0.27395883E+01
   0.75050   0.27372181E+01
   0.75150   0.27348557E+01
   0.75250   0.27325020E+01
   0.75350   0.27301581E+01
   0.75450   0.27278237E+01
   0.75550   0.27254996E+01
   0.75650   0.27231855E+01
   0.75750   0.27208824E+01
   0.75850   0.27185910E+01
   0.75950   0.27163126E+01
   0.76050   0.27140489E+01
   0.76150   0.27118018E+01
   0.76250   0.27095726E+01
   0.76350   0.27073627E+01
   0.76450   0.27051735E+01
   0.76550   0.27030058E+01
   0.76650   0.27008598E+01
   0.76750   0.26987357E+01
   0.76850   0.26966341E+01
   0.76950   0.26945548E+01
   0.77050   0.26924984E+01
   0.77150   0.26904662E+01
   0.77250   0.26884592E+01
   0.77350   0.26864791E+01
   0.77450   0.26845279E+01
   0.77550   0.26826069E+01
   0.77650   0.26807182E+01
   0.77750   0.26788619E+01
   0.77850   0.26770377E+01
   0.77950   0.26752453E+01
   0.78050   0.26734850E+01
   0.78150   0.26717703E+01
   0.78250   0.26701472E+01
   0.78350   0.26685841E+01
   0.78450   0.26670289E+01
   0.78550   0.26654818E+01
   0.78650   0.26639490E+01
   0.78750   0.26624348E+01
   0.78850   0.26609428E+01
   0.78950   0.26594748E+01
   0.79050   0.26580322E+01
   0.79150   0.26566150E+01
   0.79250   0.26552231E+01
   0.79350   0.26538553E+01
   0.79450   0.26525104E+01
   0.79550   0.26511879E+01
   0.79650   0.26498861E+01
   0.79750   0.26486056E+01
   0.79850   0.26473458E+01
   0.79950   0.26461074E+01
   0.80050   0.26448922E+01
   0.80150   0.26437008E+01
   0.80250   0.26425352E+01
   0.80350   0.26413960E+01
   0.80450   0.26402845E+01
   0.80550   0.26392002E+01
   0.80650   0.26381431E+01
   0.80750   0.26371117E+01
   0.80850   0.26361048E+01
   0.80950   0.26351213E+01
   0.81050   0.26341600E+01
   0.81150   0.26332207E+01
   0.81250   0.26323042E+01
   0.81350   0.26314120E+01
   0.81450   0.26305459E+01
   0.81550   0.26297076E+01
   0.81650   0.26288986E+01
   0.81750   0.26281188E+01
   0.81850   0.26273658E+01
   0.81950   0.26266356E+01
   0.82050   0.26259229E+01
   0.82150   0.26252215E+01
   0.82250   0.26245251E+01
   0.82350   0.26238256E+01
   0.82450   0.26231120E+01
   0.82550   0.26223674E+01
   0.82650   0.26212590E+01
   0.82750   0.26162062E+01
   0.82850   0.26357834E+01
   0.82950   0.26306763E+01
   0.83050   0.26305473E+01
   0.83150   0.26316364E+01
   0.83250   0.26333313E+01
   0.83350   0.26355307E+01
   0.83450   0.26389380E+01
   0.83550   0.26419466E+01
   0.83650   0.26328182E+01
   0.83750   0.26719823E+01
   0.83850   0.26779881E+01
   0.83950   0.26863248E+01
   0.84050   0.26959839E+01
   0.84150   0.27054076E+01
   0.84250   0.27195113E+01
   0.84350   0.27495637E+01
   0.84450   0.27213759E+01
   0.84550   0.27685344E+01
   0.84650   0.27411470E+01
   0.84750   0.17930197E+01
   0.84850   0.20803914E+01
   0.84950   0.24177146E+01
   0.85050   0.25561745E+01
   0.85150   0.27054753E+01
   0.85250   0.27371049E+01
   0.85350   0.26580975E+01
   0.85450   0.23779051E+01
   0.85550   0.18406231E+01
   0.85650   0.17814063E+01
   0.85750   0.23499188E+01
   0.85850   0.27191279E+01
   0.85950   0.27937164E+01
   0.86050   0.29865925E+01
   0.86150   0.31231997E+01
   0.86250   0.32397802E+01
   0.86350   0.33721235E+01
   0.86450   0.35271833E+01
   0.86550   0.36546955E+01
   0.86650   0.37198207E+01
   0.86750   0.37363534E+01
   0.86850   0.37328169E+01
   0.86950   0.37271130E+01
   0.87050   0.37260768E+01
   0.87150   0.37318881E+01
   0.87250   0.37455535E+01
   0.87350   0.37671928E+01
   0.87450   0.37931490E+01
   0.87550   0.38090906E+01
   0.87650   0.37941906E+01
   0.87750   0.37586327E+01
   0.87850   0.37345579E+01
   0.87950   0.37288268E+01
   0.88050   0.37317140E+01
   0.88150   0.37310658E+01
   0.88250   0.37237501E+01
   0.88350   0.37238667E+01
   0.88450   0.37340486E+01
   0.88550   0.37462080E+01
   0.88650   0.37562690E+01
   0.88750   0.37639470E+01
   0.88850   0.37702510E+01
   0.88950   0.37761691E+01
   0.89050   0.37822640E+01
   0.89150   0.37888157E+01
   0.89250   0.37961230E+01
   0.89350   0.38045895E+01
   0.89450   0.38144338E+01
   0.89550   0.38252392E+01
   0.89650   0.38358295E+01
   0.89750   0.38448308E+01
   0.89850   0.38517013E+01
   0.89950   0.38574564E+01
   0.90050   0.38645561E+01
   0.90150   0.38755858E+01
   0.90250   0.38900015E+01
   0.90350   0.39043524E+01
   0.90450   0.39174130E+01
   0.90550   0.39283695E+01
   0.90650   0.39364350E+01
   0.90750   0.39415927E+01
   0.90850   0.39447677E+01
   0.90950   0.39474556E+01
   0.91050   0.39511080E+01
   0.91150   0.39566174E+01
   0.91250   0.39640846E+01
   0.91350   0.39728653E+01
   0.91450   0.39818244E+01
   0.91550   0.39897079E+01
   0.91650   0.39955189E+01
   0.91750   0.39987452E+01
   0.91850   0.39993577E+01
   0.91950   0.39976251E+01
   0.92050   0.39938967E+01
   0.92150   0.39884937E+01
   0.92250   0.39817395E+01
   0.92350   0.39740610E+01
   0.92450   0.39660385E+01
   0.92550   0.39583137E+01
   0.92650   0.39513278E+01
   0.92750   0.39449437E+01
   0.92850   0.39381115E+01
   0.92950   0.39289036E+01
   0.93050   0.39152915E+01
   0.93150   0.38965139E+01
   0.93250   0.38739400E+01
   0.93350   0.38504057E+01
   0.93450   0.38285506E+01
   0.93550   0.38095460E+01
   0.93650   0.37928343E+01
   0.93750   0.37766623E+01
   0.93850   0.37590344E+01
   0.93950   0.37386706E+01
   0.94050   0.37154915E+01
   0.94150   0.36904149E+01
   0.94250   0.36647635E+01
   0.94350   0.36397769E+01
   0.94450   0.36165943E+01
   0.94550   0.35957313E+01
   0.94650   0.35752308E+01
   0.94750   0.35538228E+01
   0.94850   0.35308869E+01
   0.94950   0.35059106E+01
   0.95050   0.34785881E+01
   0.95150   0.34489360E+01
   0.95250   0.34173412E+01
   0.95350   0.33845277E+01
   0.95450   0.33514602E+01
   0.95550   0.33192492E+01
   0.95650   0.32885990E+01
   0.95750   0.32595029E+01
   0.95850   0.32319896E+01
   0.95950   0.32059159E+01
   0.96050   0.31809545E+01
   0.96150   0.31567130E+01
   0.96250   0.31328442E+01
   0.96350   0.31090741E+01
   0.96450   0.30849683E+01
   0.96550   0.30589290E+01
   0.96650   0.30247881E+01
   0.96750   0.29644253E+01
   0.96850   0.28540509E+01
   0.96950   0.27108467E+01
   0.97050   0.25691795E+01
   0.97150   0.23782287E+01
   0.97250   0.21426659E+01
   0.97350   0.18495600E+01
   0.97450   0.17557061E+01
   0.97550   0.18766593E+01
   0.97650   0.19713733E+01
   0.97750   0.20497777E+01
   0.97850   0.21450546E+01
   0.97950   0.21686821E+01
   0.98050   0.21382656E+01
   0.98150   0.20941744E+01
   0.98250   0.20471034E+01
   0.98350   0.20012176E+01
   0.98450   0.19830437E+01
   0.98550   0.19764410E+01
   0.98650   0.19710218E+01
   0.98750   0.19859265E+01
   0.98850   0.20243475E+01
   0.98950   0.20697610E+01
   0.99050   0.21029687E+01
   0.99150   0.21105640E+01
   0.99250   0.20833919E+01
   0.99350   0.20095174E+01
   0.99450   0.18820685E+01
   0.99550   0.17232318E+01
   0.99650   0.15857185E+01
   0.99750   0.14956988E+01
   0.99850   0.14611775E+01
   0.99950   0.14965584E+01
