# Transmission, k-averaged
# Date: 2021-05-13
#   E [eV]           T [G0]
   0.00050   0.62805568E-02
   0.00150   0.18100688E-01
   0.00250   0.12691321E-01
   0.00350   0.21587054E-02
   0.00450   0.72359014E-02
   0.00550   0.23320673E-01
   0.00650   0.26950592E-01
   0.00750   0.16905384E-01
   0.00850   0.11260414E-01
   0.00950   0.24075828E-01
   0.01050   0.17898204E-01
   0.01150   0.16080469E-01
   0.01250   0.25450757E-01
   0.01350   0.19975824E-01
   0.01450   0.16962104E-01
   0.01550   0.54848317E-01
   0.01650   0.11508005E-01
   0.01750   0.32791462E-01
   0.01850   0.28307762E-01
   0.01950   0.90061352E-02
   0.02050   0.24057042E-01
   0.02150   0.40260792E-01
   0.02250   0.73319185E-02
   0.02350   0.87200981E-02
   0.02450   0.93210191E-01
   0.02550   0.12028499E-01
   0.02650   0.47418270E-02
   0.02750   0.70889085E-02
   0.02850   0.81363313E-01
   0.02950   0.11231462E-01
   0.03050   0.38276685E-02
   0.03150   0.41330452E-02
   0.03250   0.15329408E-01
   0.03350   0.43981660E-01
   0.03450   0.52197222E-02
   0.03550   0.30665142E-02
   0.03650   0.42313351E-02
   0.03750   0.18707700E-01
   0.03850   0.38062476E-01
   0.03950   0.55411095E-02
   0.04050   0.32826008E-02
   0.04150   0.41544102E-02
   0.04250   0.13002696E-01
   0.04350   0.83702356E-01
   0.04450   0.11864197E-01
   0.04550   0.71111396E-02
   0.04650   0.78646643E-02
   0.04750   0.12277160E-01
   0.04850   0.23873819E-01
   0.04950   0.28417049E-01
   0.05050   0.16258616E-01
   0.05150   0.10184638E-01
   0.05250   0.84161134E-02
   0.05350   0.89276703E-02
   0.05450   0.11475750E-01
   0.05550   0.15331773E-01
   0.05650   0.15806751E-01
   0.05750   0.12001486E-01
   0.05850   0.88705011E-02
   0.05950   0.74759047E-02
   0.06050   0.73861005E-02
   0.06150   0.83615044E-02
   0.06250   0.10099410E-01
   0.06350   0.11316270E-01
   0.06450   0.10473501E-01
   0.06550   0.85333716E-02
   0.06650   0.70432751E-02
   0.06750   0.63627711E-02
   0.06850   0.64058271E-02
   0.06950   0.70656817E-02
   0.07050   0.81026228E-02
   0.07150   0.88359201E-02
   0.07250   0.85154967E-02
   0.07350   0.74179028E-02
   0.07450   0.63673547E-02
   0.07550   0.57588853E-02
   0.07650   0.56407708E-02
   0.07750   0.59742546E-02
   0.07850   0.66624754E-02
   0.07950   0.74111912E-02
   0.08050   0.76923831E-02
   0.08150   0.72410465E-02
   0.08250   0.64276410E-02
   0.08350   0.57388917E-02
   0.08450   0.53933193E-02
   0.08550   0.54365331E-02
   0.08650   0.58624125E-02
   0.08750   0.66000945E-02
   0.08850   0.73819202E-02
   0.08950   0.77085271E-02
   0.09050   0.72997999E-02
   0.09150   0.64564529E-02
   0.09250   0.56069535E-02
   0.09350   0.50875121E-02
   0.09450   0.49317596E-02
   0.09550   0.50099934E-02
   0.09650   0.51617995E-02
   0.09750   0.51984414E-02
   0.09850   0.49903877E-02
   0.09950   0.45740958E-02
   0.10050   0.41016298E-02
   0.10150   0.37027539E-02
   0.10250   0.34322890E-02
   0.10350   0.32925641E-02
   0.10450   0.32600085E-02
   0.10550   0.32941694E-02
   0.10650   0.33386417E-02
   0.10750   0.33316407E-02
   0.10850   0.32346239E-02
   0.10950   0.30569101E-02
   0.11050   0.28452659E-02
   0.11150   0.26498958E-02
   0.11250   0.25020936E-02
   0.11350   0.24122710E-02
   0.11450   0.23758258E-02
   0.11550   0.23775096E-02
   0.11650   0.23936497E-02
   0.11750   0.23962860E-02
   0.11850   0.23625782E-02
   0.11950   0.22858663E-02
   0.12050   0.21785910E-02
   0.12150   0.20635766E-02
   0.12250   0.19620280E-02
   0.12350   0.18869280E-02
   0.12450   0.18423732E-02
   0.12550   0.18252031E-02
   0.12650   0.18265346E-02
   0.12750   0.18332677E-02
   0.12850   0.18309266E-02
   0.12950   0.18084404E-02
   0.13050   0.17628401E-02
   0.13150   0.17002854E-02
   0.13250   0.16323966E-02
   0.13350   0.15708946E-02
   0.13450   0.15239773E-02
   0.13550   0.14952200E-02
   0.13650   0.14838943E-02
   0.13750   0.14856379E-02
   0.13850   0.14932831E-02
   0.13950   0.14982983E-02
   0.14050   0.14931789E-02
   0.14150   0.14741553E-02
   0.14250   0.14426450E-02
   0.14350   0.14043597E-02
   0.14450   0.13667252E-02
   0.14550   0.13363039E-02
   0.14650   0.13173091E-02
   0.14750   0.13111798E-02
   0.14850   0.13166954E-02
   0.14950   0.13303045E-02
   0.15050   0.13467313E-02
   0.15150   0.13601157E-02
   0.15250   0.13657043E-02
   0.15350   0.13615140E-02
   0.15450   0.13490409E-02
   0.15550   0.13325544E-02
   0.15650   0.13174532E-02
   0.15750   0.13086228E-02
   0.15850   0.13093796E-02
   0.15950   0.13210175E-02
   0.16050   0.13427078E-02
   0.16150   0.13716081E-02
   0.16250   0.14032628E-02
   0.16350   0.14324947E-02
   0.16450   0.14548081E-02
   0.16550   0.14678759E-02
   0.16650   0.14723645E-02
   0.16750   0.14716031E-02
   0.16850   0.14703036E-02
   0.16950   0.14730054E-02
   0.17050   0.14827707E-02
   0.17150   0.15001874E-02
   0.17250   0.15223015E-02
   0.17350   0.15405444E-02
   0.17450   0.15344203E-02
   0.17550   0.14556362E-02
   0.17650   0.13010916E-02
   0.17750   0.11647948E-02
   0.17850   0.10583041E-02
   0.17950   0.97195787E-03
   0.18050   0.89957862E-03
   0.18150   0.83748205E-03
   0.18250   0.78319880E-03
   0.18350   0.73487184E-03
   0.18450   0.69100672E-03
   0.18550   0.65038982E-03
   0.18650   0.61208411E-03
   0.18750   0.57545240E-03
   0.18850   0.54017361E-03
   0.18950   0.50622685E-03
   0.19050   0.47383405E-03
   0.19150   0.44336659E-03
   0.19250   0.41523838E-03
   0.19350   0.38981019E-03
   0.19450   0.36732454E-03
   0.19550   0.34787695E-03
   0.19650   0.33141809E-03
   0.19750   0.31777599E-03
   0.19850   0.30668790E-03
   0.19950   0.29783501E-03
   0.20050   0.29087631E-03
   0.20150   0.28548049E-03
   0.20250   0.28135415E-03
   0.20350   0.27826420E-03
   0.20450   0.27605143E-03
   0.20550   0.27463297E-03
   0.20650   0.27399318E-03
   0.20750   0.27416559E-03
   0.20850   0.27520949E-03
   0.20950   0.27718587E-03
   0.21050   0.28013627E-03
   0.21150   0.28406631E-03
   0.21250   0.28893558E-03
   0.21350   0.29465376E-03
   0.21450   0.30108297E-03
   0.21550   0.30804414E-03
   0.21650   0.31532077E-03
   0.21750   0.32270033E-03
   0.21850   0.33040441E-03
   0.21950   0.33882988E-03
   0.22050   0.34805093E-03
   0.22150   0.35820069E-03
   0.22250   0.36950482E-03
   0.22350   0.38224930E-03
   0.22450   0.39675229E-03
   0.22550   0.41334156E-03
   0.22650   0.43233929E-03
   0.22750   0.45405744E-03
   0.22850   0.47880865E-03
   0.22950   0.50693960E-03
   0.23050   0.53889671E-03
   0.23150   0.57532347E-03
   0.23250   0.61710202E-03
   0.23350   0.66445750E-03
   0.23450   0.70790015E-03
   0.23550   0.71689609E-03
   0.23650   0.70464017E-03
   0.23750   0.69076929E-03
   0.23850   0.67900983E-03
   0.23950   0.66956523E-03
   0.24050   0.66192698E-03
   0.24150   0.65540586E-03
   0.24250   0.64928649E-03
   0.24350   0.64290978E-03
   0.24450   0.63573371E-03
   0.24550   0.62737393E-03
   0.24650   0.61761629E-03
   0.24750   0.60639810E-03
   0.24850   0.59376087E-03
   0.24950   0.57978806E-03
   0.25050   0.56454213E-03
   0.25150   0.54801547E-03
   0.25250   0.53010636E-03
   0.25350   0.51062513E-03
   0.25450   0.48933167E-03
   0.25550   0.46600049E-03
   0.25650   0.44050184E-03
   0.25750   0.41288245E-03
   0.25850   0.38342341E-03
   0.25950   0.35265490E-03
   0.26050   0.32131889E-03
   0.26150   0.29028696E-03
   0.26250   0.26045513E-03
   0.26350   0.23264383E-03
   0.26450   0.20752412E-03
   0.26550   0.18557876E-03
   0.26650   0.16709504E-03
   0.26750   0.15217910E-03
   0.26850   0.14078150E-03
   0.26950   0.13272747E-03
   0.27050   0.12774856E-03
   0.27150   0.12551501E-03
   0.27250   0.12566787E-03
   0.27350   0.12784910E-03
   0.27450   0.13172707E-03
   0.27550   0.13701490E-03
   0.27650   0.14348060E-03
   0.27750   0.15094949E-03
   0.27850   0.15930063E-03
   0.27950   0.16845971E-03
   0.28050   0.17839039E-03
   0.28150   0.18908580E-03
   0.28250   0.20056125E-03
   0.28350   0.21284839E-03
   0.28450   0.22599121E-03
   0.28550   0.24004346E-03
   0.28650   0.25506708E-03
   0.28750   0.27113102E-03
   0.28850   0.28830944E-03
   0.28950   0.30667771E-03
   0.29050   0.32630406E-03
   0.29150   0.34723378E-03
   0.29250   0.36946058E-03
   0.29350   0.39287511E-03
   0.29450   0.41716968E-03
   0.29550   0.44164102E-03
   0.29650   0.46469973E-03
   0.29750   0.48230318E-03
   0.29850   0.48238933E-03
   0.29950   0.44928706E-03
   0.30050   0.41007789E-03
   0.30150   0.37872634E-03
   0.30250   0.35222174E-03
   0.30350   0.32783835E-03
   0.30450   0.30399309E-03
   0.30550   0.27983240E-03
   0.30650   0.25499344E-03
   0.30750   0.22947934E-03
   0.30850   0.20357584E-03
   0.30950   0.17777289E-03
   0.31050   0.15267750E-03
   0.31150   0.12891936E-03
   0.31250   0.10706149E-03
   0.31350   0.87530876E-04
   0.31450   0.70580762E-04
   0.31550   0.56286826E-04
   0.31650   0.44570756E-04
   0.31750   0.35239504E-04
   0.31850   0.28028237E-04
   0.31950   0.22638413E-04
   0.32050   0.18766801E-04
   0.32150   0.16125072E-04
   0.32250   0.14451730E-04
   0.32350   0.13518925E-04
   0.32450   0.13136354E-04
   0.32550   0.13153754E-04
   0.32650   0.13462762E-04
   0.32750   0.13998570E-04
   0.32850   0.14742128E-04
   0.32950   0.15724414E-04
   0.33050   0.17036020E-04
   0.33150   0.18847886E-04
   0.33250   0.21453774E-04
   0.33350   0.25352905E-04
   0.33450   0.31399930E-04
   0.33550   0.41031137E-04
   0.33650   0.56374356E-04
   0.33750   0.79101708E-04
   0.33850   0.10488525E-03
   0.33950   0.11569191E-03
   0.34050   0.96262163E-04
   0.34150   0.62691186E-04
   0.34250   0.36417241E-04
   0.34350   0.21057873E-04
   0.34450   0.12777831E-04
   0.34550   0.82521274E-05
   0.34650   0.56490362E-05
   0.34750   0.40532632E-05
   0.34850   0.30059452E-05
   0.34950   0.22684958E-05
   0.35050   0.17135309E-05
   0.35150   0.12791194E-05
   0.35250   0.95363390E-06
   0.35350   0.76000890E-06
   0.35450   0.70781533E-06
   0.35550   0.75156407E-06
   0.35650   0.82439095E-06
   0.35750   0.88742030E-06
   0.35850   0.93154199E-06
   0.35950   0.95984228E-06
   0.36050   0.97597376E-06
   0.36150   0.97609336E-06
   0.36250   0.92982600E-06
   0.36350   0.81227876E-06
   0.36450   0.69735830E-06
   0.36550   0.60749539E-06
   0.36650   0.53705838E-06
   0.36750   0.48073548E-06
   0.36850   0.43497559E-06
   0.36950   0.39738174E-06
   0.37050   0.36627745E-06
   0.37150   0.34045581E-06
   0.37250   0.31903275E-06
   0.37350   0.30135851E-06
   0.37450   0.28696417E-06
   0.37550   0.27553131E-06
   0.37650   0.26688033E-06
   0.37750   0.26097774E-06
   0.37850   0.25796581E-06
   0.37950   0.25821032E-06
   0.38050   0.26221895E-06
   0.38150   0.26869560E-06
   0.38250   0.26486416E-06
   0.38350   0.24632436E-06
   0.38450   0.22566236E-06
   0.38550   0.20666154E-06
   0.38650   0.18977080E-06
   0.38750   0.17483568E-06
   0.38850   0.16160827E-06
   0.38950   0.14985179E-06
   0.39050   0.13936092E-06
   0.39150   0.12996226E-06
   0.39250   0.12151014E-06
   0.39350   0.11388209E-06
   0.39450   0.10697462E-06
   0.39550   0.10069983E-06
   0.39650   0.94982646E-07
   0.39750   0.89758586E-07
   0.39850   0.84971916E-07
   0.39950   0.80574154E-07
   0.40050   0.76522838E-07
   0.40150   0.72780502E-07
   0.40250   0.69313714E-07
   0.40350   0.66092255E-07
   0.40450   0.63088279E-07
   0.40550   0.60275390E-07
   0.40650   0.57627471E-07
   0.40750   0.55116985E-07
   0.40850   0.52712082E-07
   0.40950   0.50371067E-07
   0.41050   0.48030206E-07
   0.41150   0.45572580E-07
   0.41250   0.42733568E-07
   0.41350   0.38781327E-07
   0.41450   0.32469053E-07
   0.41550   0.26076599E-07
   0.41650   0.21533630E-07
   0.41750   0.18269192E-07
   0.41850   0.15800087E-07
   0.41950   0.13858769E-07
   0.42050   0.12289114E-07
   0.42150   0.10993167E-07
   0.42250   0.99057313E-08
   0.42350   0.89813543E-08
   0.42450   0.81871772E-08
   0.42550   0.74987412E-08
   0.42650   0.68974004E-08
   0.42750   0.63686580E-08
   0.42850   0.59010503E-08
   0.42950   0.54853846E-08
   0.43050   0.51141948E-08
   0.43150   0.47813535E-08
   0.43250   0.44817821E-08
   0.43350   0.42112358E-08
   0.43450   0.39661403E-08
   0.43550   0.37434646E-08
   0.43650   0.35406220E-08
   0.43750   0.33553931E-08
   0.43850   0.31858634E-08
   0.43950   0.30303733E-08
   0.44050   0.28874780E-08
   0.44150   0.27559151E-08
   0.44250   0.26345759E-08
   0.44350   0.25224847E-08
   0.44450   0.24187792E-08
   0.44550   0.23226956E-08
   0.44650   0.22335547E-08
   0.44750   0.21507514E-08
   0.44850   0.20737447E-08
   0.44950   0.20020510E-08
   0.45050   0.19352355E-08
   0.45150   0.18729078E-08
   0.45250   0.18147158E-08
   0.45350   0.17603420E-08
   0.45450   0.17094995E-08
   0.45550   0.16619287E-08
   0.45650   0.16173944E-08
   0.45750   0.15756834E-08
   0.45850   0.15366022E-08
   0.45950   0.14999753E-08
   0.46050   0.14656433E-08
   0.46150   0.14334617E-08
   0.46250   0.14032991E-08
   0.46350   0.13750371E-08
   0.46450   0.13485681E-08
   0.46550   0.13237954E-08
   0.46650   0.13006319E-08
   0.46750   0.12790000E-08
   0.46850   0.12588304E-08
   0.46950   0.12400623E-08
   0.47050   0.12226427E-08
   0.47150   0.12065261E-08
   0.47250   0.11916750E-08
   0.47350   0.11780585E-08
   0.47450   0.11656538E-08
   0.47550   0.11544450E-08
   0.47650   0.11444239E-08
   0.47750   0.11355907E-08
   0.47850   0.11279537E-08
   0.47950   0.11215304E-08
   0.48050   0.11163481E-08
   0.48150   0.11124451E-08
   0.48250   0.11098723E-08
   0.48350   0.11086941E-08
   0.48450   0.11089919E-08
   0.48550   0.11108657E-08
   0.48650   0.11144389E-08
   0.48750   0.11198613E-08
   0.48850   0.11273160E-08
   0.48950   0.11370247E-08
   0.49050   0.11492542E-08
   0.49150   0.11643198E-08
   0.49250   0.11825748E-08
   0.49350   0.12043588E-08
   0.49450   0.12297985E-08
   0.49550   0.12580770E-08
   0.49650   0.12844068E-08
   0.49750   0.12853271E-08
   0.49850   0.11765006E-08
   0.49950   0.97100128E-09
   0.50050   0.79901780E-09
   0.50150   0.66993677E-09
   0.50250   0.57078436E-09
   0.50350   0.49239207E-09
   0.50450   0.42901244E-09
   0.50550   0.37696235E-09
   0.50650   0.33381195E-09
   0.50750   0.29793643E-09
   0.50850   0.26826716E-09
   0.50950   0.24415706E-09
   0.51050   0.22531842E-09
   0.51150   0.21181788E-09
   0.51250   0.20412923E-09
   0.51350   0.20326510E-09
   0.51450   0.21103912E-09
   0.51550   0.23057574E-09
   0.51650   0.26734448E-09
   0.51750   0.33142961E-09
   0.51850   0.44306672E-09
   0.51950   0.64742994E-09
   0.52050   0.10381823E-08
   0.52150   0.15679636E-08
   0.52250   0.19615110E-08
   0.52350   0.22403079E-08
   0.52450   0.24619002E-08
   0.52550   0.26534850E-08
   0.52650   0.28292815E-08
   0.52750   0.29980123E-08
   0.52850   0.31656093E-08
   0.52950   0.33357528E-08
   0.53050   0.35077419E-08
   0.53150   0.36649810E-08
   0.53250   0.37163606E-08
   0.53350   0.33860832E-08
   0.53450   0.28335587E-08
   0.53550   0.23926923E-08
   0.53650   0.20652564E-08
   0.53750   0.18156003E-08
   0.53850   0.16195921E-08
   0.53950   0.14620396E-08
   0.54050   0.13330691E-08
   0.54150   0.12259952E-08
   0.54250   0.11361209E-08
   0.54350   0.10600411E-08
   0.54450   0.99522146E-09
   0.54550   0.93973318E-09
   0.54650   0.89207980E-09
   0.54750   0.85108148E-09
   0.54850   0.81579421E-09
   0.54950   0.78545337E-09
   0.55050   0.75943263E-09
   0.55150   0.73721396E-09
   0.55250   0.71836498E-09
   0.55350   0.70252199E-09
   0.55450   0.68937689E-09
   0.55550   0.67866707E-09
   0.55650   0.67016737E-09
   0.55750   0.66368372E-09
   0.55850   0.65904837E-09
   0.55950   0.65611566E-09
   0.56050   0.65475891E-09
   0.56150   0.65486783E-09
   0.56250   0.65634642E-09
   0.56350   0.65911143E-09
   0.56450   0.66309097E-09
   0.56550   0.66822387E-09
   0.56650   0.67445871E-09
   0.56750   0.68175365E-09
   0.56850   0.69007644E-09
   0.56950   0.69940431E-09
   0.57050   0.70972500E-09
   0.57150   0.72103723E-09
   0.57250   0.73335227E-09
   0.57350   0.74669543E-09
   0.57450   0.76110884E-09
   0.57550   0.77665441E-09
   0.57650   0.79341783E-09
   0.57750   0.81151413E-09
   0.57850   0.83109436E-09
   0.57950   0.85235458E-09
   0.58050   0.87554736E-09
   0.58150   0.90099694E-09
   0.58250   0.92911873E-09
   0.58350   0.96044517E-09
   0.58450   0.99565967E-09
   0.58550   0.10356422E-08
   0.58650   0.10815293E-08
   0.58750   0.11347949E-08
   0.58850   0.11973608E-08
   0.58950   0.12717449E-08
   0.59050   0.13612667E-08
   0.59150   0.14703282E-08
   0.59250   0.16048074E-08
   0.59350   0.17726065E-08
   0.59450   0.19844266E-08
   0.59550   0.22548681E-08
   0.59650   0.26040048E-08
   0.59750   0.30596548E-08
   0.59850   0.36606767E-08
   0.59950   0.44617905E-08
   0.60050   0.55406733E-08
   0.60150   0.70084725E-08
   0.60250   0.90254613E-08
   0.60350   0.11824485E-07
   0.60450   0.15746206E-07
   0.60550   0.21292250E-07
   0.60650   0.29205534E-07
   0.60750   0.40591839E-07
   0.60850   0.57104145E-07
   0.60950   0.81223440E-07
   0.61050   0.11669223E-06
   0.61150   0.16920548E-06
   0.61250   0.24758603E-06
   0.61350   0.36600824E-06
   0.61450   0.54879803E-06
   0.61550   0.84207676E-06
   0.61650   0.13434113E-05
   0.61750   0.22556044E-05
   0.61850   0.36831202E-05
   0.61950   0.53619610E-05
   0.62050   0.74264995E-05
   0.62150   0.97220418E-05
   0.62250   0.11207205E-04
   0.62350   0.11376179E-04
   0.62450   0.11276144E-04
   0.62550   0.11158038E-04
   0.62650   0.11008836E-04
   0.62750   0.10828945E-04
   0.62850   0.10651920E-04
   0.62950   0.10533707E-04
   0.63050   0.10534036E-04
   0.63150   0.10695268E-04
   0.63250   0.11024257E-04
   0.63350   0.11482505E-04
   0.63450   0.11987595E-04
   0.63550   0.12427565E-04
   0.63650   0.12733726E-04
   0.63750   0.18451570E-04
   0.63850   0.17005224E-04
   0.63950   0.13804482E-04
   0.64050   0.12627271E-04
   0.64150   0.11634158E-04
   0.64250   0.10796152E-04
   0.64350   0.10279994E-04
   0.64450   0.10329625E-04
   0.64550   0.11261847E-04
   0.64650   0.13508622E-04
   0.64750   0.17704950E-04
   0.64850   0.24530198E-04
   0.64950   0.32377746E-04
   0.65050   0.40220224E-04
   0.65150   0.57024066E-04
   0.65250   0.84894687E-04
   0.65350   0.11642756E-03
   0.65450   0.14148747E-03
   0.65550   0.15254019E-03
   0.65650   0.14715512E-03
   0.65750   0.12945961E-03
   0.65850   0.14276609E-03
   0.65950   0.27183074E-03
   0.66050   0.23301793E-03
   0.66150   0.15441603E-03
   0.66250   0.11985454E-03
   0.66350   0.10334447E-03
   0.66450   0.94594558E-04
   0.66550   0.10224310E-03
   0.66650   0.23793243E-03
   0.66750   0.21019161E-02
   0.66850   0.81263654E-01
   0.66950   0.30578630E-01
   0.67050   0.48485018E-01
   0.67150   0.45604188E-01
   0.67250   0.50210911E-02
   0.67350   0.43545298E-01
   0.67450   0.81912331E-01
   0.67550   0.82736701E-01
   0.67650   0.11195762E+00
   0.67750   0.91833539E-01
   0.67850   0.43049181E+00
   0.67950   0.12472562E+00
   0.68050   0.57765044E-01
   0.68150   0.22630513E-01
   0.68250   0.15033284E-01
   0.68350   0.13844243E-01
   0.68450   0.16615771E-01
   0.68550   0.13840502E-01
   0.68650   0.78349328E-02
   0.68750   0.58764899E-02
   0.68850   0.53990390E-02
   0.68950   0.52038450E-02
   0.69050   0.49523721E-02
   0.69150   0.45566526E-02
   0.69250   0.40344801E-02
   0.69350   0.34684618E-02
   0.69450   0.29321462E-02
   0.69550   0.24556650E-02
   0.69650   0.20490815E-02
   0.69750   0.17221406E-02
   0.69850   0.14809080E-02
   0.69950   0.13236244E-02
   0.70050   0.12435112E-02
   0.70150   0.12310449E-02
   0.70250   0.12741338E-02
   0.70350   0.13577613E-02
   0.70450   0.14562458E-02
   0.70550   0.14936778E-02
   0.70650   0.14240429E-02
   0.70750   0.13241366E-02
   0.70850   0.12179016E-02
   0.70950   0.11098410E-02
   0.71050   0.10034841E-02
   0.71150   0.90192555E-03
   0.71250   0.80730673E-03
   0.71350   0.72076271E-03
   0.71450   0.64264273E-03
   0.71550   0.57278376E-03
   0.71650   0.51073282E-03
   0.71750   0.45588907E-03
   0.71850   0.40758250E-03
   0.71950   0.36511692E-03
   0.72050   0.32780477E-03
   0.72150   0.29500519E-03
   0.72250   0.26616233E-03
   0.72350   0.24083206E-03
   0.72450   0.21868746E-03
   0.72550   0.19950164E-03
   0.72650   0.18311631E-03
   0.72750   0.16941004E-03
   0.72850   0.15827916E-03
   0.72950   0.14964335E-03
   0.73050   0.14350140E-03
   0.73150   0.14014156E-03
   0.73250   0.14038786E-03
   0.73350   0.14280391E-03
   0.73450   0.14515799E-03
   0.73550   0.14742566E-03
   0.73650   0.14975651E-03
   0.73750   0.15219288E-03
   0.73850   0.15472235E-03
   0.73950   0.15730996E-03
   0.74050   0.15991234E-03
   0.74150   0.16248437E-03
   0.74250   0.16498403E-03
   0.74350   0.16737780E-03
   0.74450   0.16964723E-03
   0.74550   0.17179565E-03
   0.74650   0.17385319E-03
   0.74750   0.17587859E-03
   0.74850   0.17795687E-03
   0.74950   0.18019318E-03
   0.75050   0.18270475E-03
   0.75150   0.18561263E-03
   0.75250   0.18903524E-03
   0.75350   0.19308494E-03
   0.75450   0.19786764E-03
   0.75550   0.20348490E-03
   0.75650   0.21003702E-03
   0.75750   0.21762577E-03
   0.75850   0.22635564E-03
   0.75950   0.23633278E-03
   0.76050   0.24766219E-03
   0.76150   0.26044360E-03
   0.76250   0.27476711E-03
   0.76350   0.29070993E-03
   0.76450   0.30833439E-03
   0.76550   0.32768791E-03
   0.76650   0.34880449E-03
   0.76750   0.37170752E-03
   0.76850   0.39641326E-03
   0.76950   0.42293459E-03
   0.77050   0.45128469E-03
   0.77150   0.48148082E-03
   0.77250   0.51354902E-03
   0.77350   0.54753036E-03
   0.77450   0.58349059E-03
   0.77550   0.62153389E-03
   0.77650   0.66182285E-03
   0.77750   0.70460013E-03
   0.77850   0.75019163E-03
   0.77950   0.79887413E-03
   0.78050   0.84990688E-03
   0.78150   0.89502119E-03
   0.78250   0.90123084E-03
   0.78350   0.87466754E-03
   0.78450   0.84922498E-03
   0.78550   0.82982762E-03
   0.78650   0.81539754E-03
   0.78750   0.80467283E-03
   0.78850   0.79670805E-03
   0.78950   0.79082139E-03
   0.79050   0.78651565E-03
   0.79150   0.78342325E-03
   0.79250   0.78127068E-03
   0.79350   0.77985442E-03
   0.79450   0.77902322E-03
   0.79550   0.77866291E-03
   0.79650   0.77868311E-03
   0.79750   0.77900564E-03
   0.79850   0.77955530E-03
   0.79950   0.78025367E-03
   0.80050   0.78101689E-03
   0.80150   0.78175694E-03
   0.80250   0.78238657E-03
   0.80350   0.78282610E-03
   0.80450   0.78301155E-03
   0.80550   0.78290136E-03
   0.80650   0.78248139E-03
   0.80750   0.78176608E-03
   0.80850   0.78079663E-03
   0.80950   0.77963603E-03
   0.81050   0.77836192E-03
   0.81150   0.77705958E-03
   0.81250   0.77581540E-03
   0.81350   0.77471265E-03
   0.81450   0.77383034E-03
   0.81550   0.77324413E-03
   0.81650   0.77303016E-03
   0.81750   0.77326992E-03
   0.81850   0.77405537E-03
   0.81950   0.77549380E-03
   0.82050   0.77771040E-03
   0.82150   0.78084943E-03
   0.82250   0.78507117E-03
   0.82350   0.79054374E-03
   0.82450   0.79741568E-03
   0.82550   0.80572366E-03
   0.82650   0.81543718E-03
   0.82750   0.82697585E-03
   0.82850   0.84065623E-03
   0.82950   0.85669954E-03
   0.83050   0.87535148E-03
   0.83150   0.89688326E-03
   0.83250   0.92159188E-03
   0.83350   0.94980566E-03
   0.83450   0.98189630E-03
   0.83550   0.10183007E-02
   0.83650   0.10595564E-02
   0.83750   0.11063627E-02
   0.83850   0.11596770E-02
   0.83950   0.12208658E-02
   0.84050   0.12919008E-02
   0.84150   0.13752439E-02
   0.84250   0.14694452E-02
   0.84350   0.15435497E-02
   0.84450   0.15784564E-02
   0.84550   0.16066466E-02
   0.84650   0.16342388E-02
   0.84750   0.16438031E-02
   0.84850   0.16035788E-02
   0.84950   0.15474960E-02
   0.85050   0.14991998E-02
   0.85150   0.14588796E-02
   0.85250   0.14253306E-02
   0.85350   0.13982930E-02
   0.85450   0.13782294E-02
   0.85550   0.13660197E-02
   0.85650   0.13627495E-02
   0.85750   0.13695805E-02
   0.85850   0.13876762E-02
   0.85950   0.14181576E-02
   0.86050   0.14620764E-02
   0.86150   0.15204035E-02
   0.86250   0.15940425E-02
   0.86350   0.16838990E-02
   0.86450   0.17910398E-02
   0.86550   0.19169693E-02
   0.86650   0.20640122E-02
   0.86750   0.22357472E-02
   0.86850   0.24373725E-02
   0.86950   0.26758385E-02
   0.87050   0.29594940E-02
   0.87150   0.32968824E-02
   0.87250   0.36943902E-02
   0.87350   0.41540000E-02
   0.87450   0.46809390E-02
   0.87550   0.53523374E-02
   0.87650   0.67881136E-02
   0.87750   0.17433062E-01
   0.87850   0.87978333E-01
   0.87950   0.78793406E-01
   0.88050   0.29936709E-01
   0.88150   0.21161396E-01
   0.88250   0.21011474E-01
   0.88350   0.26939109E-01
   0.88450   0.43229848E-01
   0.88550   0.57106994E-01
   0.88650   0.42875625E-01
   0.88750   0.37970718E-01
   0.88850   0.45425005E-01
   0.88950   0.71701236E-01
   0.89050   0.19441231E+00
   0.89150   0.31226039E+00
   0.89250   0.35437939E+00
   0.89350   0.33141598E+00
   0.89450   0.32302910E+00
   0.89550   0.35019499E+00
   0.89650   0.39500394E+00
   0.89750   0.40945116E+00
   0.89850   0.39475402E+00
   0.89950   0.41579649E+00
   0.90050   0.43979281E+00
   0.90150   0.43815506E+00
   0.90250   0.42503813E+00
   0.90350   0.39949989E+00
   0.90450   0.37442130E+00
   0.90550   0.39337224E+00
   0.90650   0.40544635E+00
   0.90750   0.35696825E+00
   0.90850   0.35531387E+00
   0.90950   0.46264279E+00
   0.91050   0.41189319E+00
   0.91150   0.36606595E+00
   0.91250   0.31728551E+00
   0.91350   0.32228222E+00
   0.91450   0.28842130E+00
   0.91550   0.26388708E+00
   0.91650   0.19580303E+00
   0.91750   0.15180250E+00
   0.91850   0.14325847E+00
   0.91950   0.15887782E+00
   0.92050   0.17098358E+00
   0.92150   0.17556132E+00
   0.92250   0.17752360E+00
   0.92350   0.17930631E+00
   0.92450   0.18158592E+00
   0.92550   0.18212219E+00
   0.92650   0.17781973E+00
   0.92750   0.16776878E+00
   0.92850   0.15367910E+00
   0.92950   0.13827421E+00
   0.93050   0.12388290E+00
   0.93150   0.11182386E+00
   0.93250   0.10250971E+00
   0.93350   0.95869109E-01
   0.93450   0.91682874E-01
   0.93550   0.89722358E-01
   0.93650   0.89716338E-01
   0.93750   0.91189541E-01
   0.93850   0.93392558E-01
   0.93950   0.95867440E-01
   0.94050   0.99437512E-01
   0.94150   0.10506897E+00
   0.94250   0.10281892E+00
   0.94350   0.85230768E-01
   0.94450   0.75615957E-01
   0.94550   0.71627453E-01
   0.94650   0.69088712E-01
   0.94750   0.66732995E-01
   0.94850   0.64021140E-01
   0.94950   0.60605921E-01
   0.95050   0.56340639E-01
   0.95150   0.51369272E-01
   0.95250   0.46087086E-01
   0.95350   0.40953748E-01
   0.95450   0.36324337E-01
   0.95550   0.32451525E-01
   0.95650   0.29516099E-01
   0.95750   0.27413897E-01
   0.95850   0.26005678E-01
   0.95950   0.25212960E-01
   0.96050   0.24984576E-01
   0.96150   0.25278736E-01
   0.96250   0.26055217E-01
   0.96350   0.27273979E-01
   0.96450   0.28896075E-01
   0.96550   0.30883221E-01
   0.96650   0.33194456E-01
   0.96750   0.35780594E-01
   0.96850   0.38578574E-01
   0.96950   0.41508336E-01
   0.97050   0.44474896E-01
   0.97150   0.47377963E-01
   0.97250   0.50129820E-01
   0.97350   0.52676912E-01
   0.97450   0.55014763E-01
   0.97550   0.57196710E-01
   0.97650   0.59364721E-01
   0.97750   0.61741970E-01
   0.97850   0.64641647E-01
   0.97950   0.68245612E-01
   0.98050   0.72337195E-01
   0.98150   0.76558329E-01
   0.98250   0.80805510E-01
   0.98350   0.85217342E-01
   0.98450   0.89893274E-01
   0.98550   0.94614677E-01
   0.98650   0.98775975E-01
   0.98750   0.10171364E+00
   0.98850   0.10297078E+00
   0.98950   0.10209826E+00
   0.99050   0.99341892E-01
   0.99150   0.95065787E-01
   0.99250   0.89661084E-01
   0.99350   0.83284736E-01
   0.99450   0.76006688E-01
   0.99550   0.68334915E-01
   0.99650   0.61417997E-01
   0.99750   0.56122206E-01
   0.99850   0.52668955E-01
   0.99950   0.50915450E-01
