# Transmission, k-averaged
# Date: 2021-05-13
#   E [eV]           T [G0]
   0.00050   0.39148235E+00
   0.00150   0.21998824E+00
   0.00250   0.21176429E-01
   0.00350   0.20470655E-01
   0.00450   0.35317203E-02
   0.00550   0.19493623E-01
   0.00650   0.40569842E-01
   0.00750   0.33320583E-01
   0.00850   0.27131747E-01
   0.00950   0.55256281E-01
   0.01050   0.37742484E-01
   0.01150   0.30124834E-01
   0.01250   0.42109806E-01
   0.01350   0.29068345E-01
   0.01450   0.21867670E-01
   0.01550   0.62311135E-01
   0.01650   0.11524909E-01
   0.01750   0.29462520E-01
   0.01850   0.23076171E-01
   0.01950   0.66502891E-02
   0.02050   0.16130783E-01
   0.02150   0.24838801E-01
   0.02250   0.42230738E-02
   0.02350   0.47344542E-02
   0.02450   0.48088804E-01
   0.02550   0.59588682E-02
   0.02650   0.22822693E-02
   0.02750   0.33481831E-02
   0.02850   0.37985418E-01
   0.02950   0.52104089E-02
   0.03050   0.17713868E-02
   0.03150   0.19129107E-02
   0.03250   0.71039735E-02
   0.03350   0.20410096E-01
   0.03450   0.24240769E-02
   0.03550   0.14232507E-02
   0.03650   0.19580231E-02
   0.03750   0.85985679E-02
   0.03850   0.17281720E-01
   0.03950   0.24664602E-02
   0.04050   0.14174365E-02
   0.04150   0.17135780E-02
   0.04250   0.49978932E-02
   0.04350   0.28657844E-01
   0.04450   0.33041188E-02
   0.04550   0.14696580E-02
   0.04650   0.13088515E-02
   0.04750   0.17973233E-02
   0.04850   0.32141302E-02
   0.04950   0.36037040E-02
   0.05050   0.19703819E-02
   0.05150   0.11907165E-02
   0.05250   0.95550960E-03
   0.05350   0.98909845E-03
   0.05450   0.12453625E-02
   0.05550   0.16346254E-02
   0.05650   0.16596529E-02
   0.05750   0.12433120E-02
   0.05850   0.90803631E-03
   0.05950   0.75704459E-03
   0.06050   0.74056187E-03
   0.06150   0.83069038E-03
   0.06250   0.99483342E-03
   0.06350   0.11059730E-02
   0.06450   0.10162846E-02
   0.06550   0.82267454E-03
   0.06650   0.67509245E-03
   0.06750   0.60672825E-03
   0.06850   0.60803478E-03
   0.06950   0.66791219E-03
   0.07050   0.76308084E-03
   0.07150   0.82929921E-03
   0.07250   0.79670362E-03
   0.07350   0.69198658E-03
   0.07450   0.59238914E-03
   0.07550   0.53447258E-03
   0.07650   0.52237173E-03
   0.07750   0.55220537E-03
   0.07850   0.61482569E-03
   0.07950   0.68300770E-03
   0.08050   0.70816628E-03
   0.08150   0.66607015E-03
   0.08250   0.59090008E-03
   0.08350   0.52738516E-03
   0.08450   0.49554720E-03
   0.08550   0.49954461E-03
   0.08650   0.53883274E-03
   0.08750   0.60697022E-03
   0.08850   0.67944487E-03
   0.08950   0.71032194E-03
   0.09050   0.67353155E-03
   0.09150   0.59592316E-03
   0.09250   0.51527208E-03
   0.09350   0.46397251E-03
   0.09450   0.44665343E-03
   0.09550   0.45110591E-03
   0.09650   0.46250157E-03
   0.09750   0.46383782E-03
   0.09850   0.44366191E-03
   0.09950   0.40536124E-03
   0.10050   0.36246682E-03
   0.10150   0.32639006E-03
   0.10250   0.30185486E-03
   0.10350   0.28895846E-03
   0.10450   0.28554833E-03
   0.10550   0.28802699E-03
   0.10650   0.29143950E-03
   0.10750   0.29039924E-03
   0.10850   0.28157394E-03
   0.10950   0.26580426E-03
   0.11050   0.24717179E-03
   0.11150   0.23003486E-03
   0.11250   0.21709681E-03
   0.11350   0.20924698E-03
   0.11450   0.20607673E-03
   0.11550   0.20625953E-03
   0.11650   0.20774138E-03
   0.11750   0.20809517E-03
   0.11850   0.20533288E-03
   0.11950   0.19886538E-03
   0.12050   0.18976150E-03
   0.12150   0.17999804E-03
   0.12250   0.17142043E-03
   0.12350   0.16516734E-03
   0.12450   0.16160915E-03
   0.12550   0.16048488E-03
   0.12650   0.16103016E-03
   0.12750   0.16210237E-03
   0.12850   0.16242439E-03
   0.12950   0.16100427E-03
   0.13050   0.15755676E-03
   0.13150   0.15260729E-03
   0.13250   0.14717886E-03
   0.13350   0.14232042E-03
   0.13450   0.13878055E-03
   0.13550   0.13690176E-03
   0.13650   0.13663995E-03
   0.13750   0.13761582E-03
   0.13850   0.13918121E-03
   0.13950   0.14054496E-03
   0.14050   0.14099272E-03
   0.14150   0.14014584E-03
   0.14250   0.13811111E-03
   0.14350   0.13541168E-03
   0.14450   0.13275172E-03
   0.14550   0.13077143E-03
   0.14650   0.12989840E-03
   0.14750   0.13029731E-03
   0.14850   0.13187072E-03
   0.14950   0.13428130E-03
   0.15050   0.13700359E-03
   0.15150   0.13943344E-03
   0.15250   0.14106072E-03
   0.15350   0.14164782E-03
   0.15450   0.14131622E-03
   0.15550   0.14048591E-03
   0.15650   0.13971019E-03
   0.15750   0.13950215E-03
   0.15850   0.14021697E-03
   0.15950   0.14199567E-03
   0.16050   0.14474744E-03
   0.16150   0.14815659E-03
   0.16250   0.15172423E-03
   0.16350   0.15486688E-03
   0.16450   0.15707323E-03
   0.16550   0.15807037E-03
   0.16650   0.15791527E-03
   0.16750   0.15695610E-03
   0.16850   0.15568770E-03
   0.16950   0.15457821E-03
   0.17050   0.15392811E-03
   0.17150   0.15377090E-03
   0.17250   0.15377961E-03
   0.17350   0.15308913E-03
   0.17450   0.14972874E-03
   0.17550   0.13921167E-03
   0.17650   0.12177024E-03
   0.17750   0.10666666E-03
   0.17850   0.94878138E-04
   0.17950   0.85403830E-04
   0.18050   0.77619399E-04
   0.18150   0.71154827E-04
   0.18250   0.65762208E-04
   0.18350   0.61253479E-04
   0.18450   0.57472829E-04
   0.18550   0.54285170E-04
   0.18650   0.51572450E-04
   0.18750   0.49233982E-04
   0.18850   0.47188616E-04
   0.18950   0.45376866E-04
   0.19050   0.43761389E-04
   0.19150   0.42324908E-04
   0.19250   0.41065610E-04
   0.19350   0.39991031E-04
   0.19450   0.39111728E-04
   0.19550   0.38436021E-04
   0.19650   0.37966292E-04
   0.19750   0.37697017E-04
   0.19850   0.37614311E-04
   0.19950   0.37696784E-04
   0.20050   0.37917580E-04
   0.20150   0.38247352E-04
   0.20250   0.38657905E-04
   0.20350   0.39125862E-04
   0.20450   0.39635652E-04
   0.20550   0.40181058E-04
   0.20650   0.40764935E-04
   0.20750   0.41397205E-04
   0.20850   0.42091586E-04
   0.20950   0.42861786E-04
   0.21050   0.43717799E-04
   0.21150   0.44662793E-04
   0.21250   0.45690973E-04
   0.21350   0.46786561E-04
   0.21450   0.47924357E-04
   0.21550   0.49073511E-04
   0.21650   0.50216680E-04
   0.21750   0.51472569E-04
   0.21850   0.53174674E-04
   0.21950   0.55177028E-04
   0.22050   0.57308167E-04
   0.22150   0.59548205E-04
   0.22250   0.61919287E-04
   0.22350   0.64458116E-04
   0.22450   0.67206936E-04
   0.22550   0.70208102E-04
   0.22650   0.73500370E-04
   0.22750   0.77116987E-04
   0.22850   0.81086466E-04
   0.22950   0.85437234E-04
   0.23050   0.90207388E-04
   0.23150   0.95459174E-04
   0.23250   0.10128276E-03
   0.23350   0.10764600E-03
   0.23450   0.11294557E-03
   0.23550   0.11235521E-03
   0.23650   0.10820487E-03
   0.23750   0.10368301E-03
   0.23850   0.99379140E-04
   0.23950   0.95323863E-04
   0.24050   0.91445712E-04
   0.24150   0.87658773E-04
   0.24250   0.83888779E-04
   0.24350   0.80085854E-04
   0.24450   0.76231634E-04
   0.24550   0.72341645E-04
   0.24650   0.68462650E-04
   0.24750   0.64665721E-04
   0.24850   0.61036764E-04
   0.24950   0.57666672E-04
   0.25050   0.54642773E-04
   0.25150   0.52042371E-04
   0.25250   0.49928058E-04
   0.25350   0.48343918E-04
   0.25450   0.47311660E-04
   0.25550   0.46826361E-04
   0.25650   0.46852485E-04
   0.25750   0.47321937E-04
   0.25850   0.48136339E-04
   0.25950   0.49175345E-04
   0.26050   0.50311181E-04
   0.26150   0.51427480E-04
   0.26250   0.52439114E-04
   0.26350   0.53308937E-04
   0.26450   0.54058430E-04
   0.26550   0.54770146E-04
   0.26650   0.55581000E-04
   0.26750   0.56666377E-04
   0.26850   0.58216105E-04
   0.26950   0.60405218E-04
   0.27050   0.63364423E-04
   0.27150   0.67156463E-04
   0.27250   0.71763970E-04
   0.27350   0.77091674E-04
   0.27450   0.82981744E-04
   0.27550   0.89237561E-04
   0.27650   0.95649717E-04
   0.27750   0.10201854E-03
   0.27850   0.10816998E-03
   0.27950   0.11396361E-03
   0.28050   0.11929411E-03
   0.28150   0.12408805E-03
   0.28250   0.12829817E-03
   0.28350   0.13189690E-03
   0.28450   0.13487045E-03
   0.28550   0.13721395E-03
   0.28650   0.13892782E-03
   0.28750   0.14001506E-03
   0.28850   0.14047934E-03
   0.28950   0.14032293E-03
   0.29050   0.13954441E-03
   0.29150   0.13813558E-03
   0.29250   0.13607707E-03
   0.29350   0.13333173E-03
   0.29450   0.12983306E-03
   0.29550   0.12545918E-03
   0.29650   0.11995831E-03
   0.29750   0.11268541E-03
   0.29850   0.10168509E-03
   0.29950   0.85297812E-04
   0.30050   0.70171860E-04
   0.30150   0.58668880E-04
   0.30250   0.49864793E-04
   0.30350   0.43109008E-04
   0.30450   0.38038146E-04
   0.30550   0.34415356E-04
   0.30650   0.32039356E-04
   0.30750   0.30697225E-04
   0.30850   0.30145162E-04
   0.30950   0.30110601E-04
   0.31050   0.30310874E-04
   0.31150   0.30482011E-04
   0.31250   0.30409397E-04
   0.31350   0.29951998E-04
   0.31450   0.29054523E-04
   0.31550   0.27746011E-04
   0.31650   0.26127005E-04
   0.31750   0.24349287E-04
   0.31850   0.22591914E-04
   0.31950   0.21035983E-04
   0.32050   0.19839501E-04
   0.32150   0.19113901E-04
   0.32250   0.18904990E-04
   0.32350   0.19182664E-04
   0.32450   0.19843912E-04
   0.32550   0.20731428E-04
   0.32650   0.21665273E-04
   0.32750   0.22479871E-04
   0.32850   0.23055858E-04
   0.32950   0.23338131E-04
   0.33050   0.23336701E-04
   0.33150   0.23112947E-04
   0.33250   0.22756685E-04
   0.33350   0.22358028E-04
   0.33450   0.21971857E-04
   0.33550   0.21564761E-04
   0.33650   0.20940615E-04
   0.33750   0.19736146E-04
   0.33850   0.17854925E-04
   0.33950   0.16261685E-04
   0.34050   0.15621936E-04
   0.34150   0.14562093E-04
   0.34250   0.12559102E-04
   0.34350   0.10435620E-04
   0.34450   0.87525659E-05
   0.34550   0.76075307E-05
   0.34650   0.69253847E-05
   0.34750   0.66095367E-05
   0.34850   0.65738550E-05
   0.34950   0.67237647E-05
   0.35050   0.69152238E-05
   0.35150   0.69347921E-05
   0.35250   0.66258967E-05
   0.35350   0.61772771E-05
   0.35450   0.59513259E-05
   0.35550   0.58199539E-05
   0.35650   0.54457955E-05
   0.35750   0.48299898E-05
   0.35850   0.41488047E-05
   0.35950   0.35255330E-05
   0.36050   0.30006777E-05
   0.36150   0.25608711E-05
   0.36250   0.21408432E-05
   0.36350   0.17017051E-05
   0.36450   0.13519560E-05
   0.36550   0.10993482E-05
   0.36650   0.91488118E-06
   0.36750   0.77724957E-06
   0.36850   0.67238147E-06
   0.36950   0.59086653E-06
   0.37050   0.52629082E-06
   0.37150   0.47421955E-06
   0.37250   0.43155970E-06
   0.37350   0.39614994E-06
   0.37450   0.36649141E-06
   0.37550   0.34156955E-06
   0.37650   0.32073899E-06
   0.37750   0.30365581E-06
   0.37850   0.29024883E-06
   0.37950   0.28071392E-06
   0.38050   0.27536140E-06
   0.38150   0.27256857E-06
   0.38250   0.25973901E-06
   0.38350   0.23428747E-06
   0.38450   0.20911249E-06
   0.38550   0.18750796E-06
   0.38650   0.16950074E-06
   0.38750   0.15459089E-06
   0.38850   0.14223488E-06
   0.38950   0.13193784E-06
   0.39050   0.12326907E-06
   0.39150   0.11586110E-06
   0.39250   0.10940534E-06
   0.39350   0.10364773E-06
   0.39450   0.98384483E-07
   0.39550   0.93458141E-07
   0.39650   0.88753623E-07
   0.39750   0.84194099E-07
   0.39850   0.79736687E-07
   0.39950   0.75367815E-07
   0.40050   0.71098427E-07
   0.40150   0.66958883E-07
   0.40250   0.62993799E-07
   0.40350   0.59256774E-07
   0.40450   0.55805167E-07
   0.40550   0.52694855E-07
   0.40650   0.49975075E-07
   0.40750   0.47683045E-07
   0.40850   0.45837968E-07
   0.40950   0.44432905E-07
   0.41050   0.43420648E-07
   0.41150   0.42680924E-07
   0.41250   0.41921346E-07
   0.41350   0.40321144E-07
   0.41450   0.36227590E-07
   0.41550   0.31355622E-07
   0.41650   0.27870474E-07
   0.41750   0.25403011E-07
   0.41850   0.23530228E-07
   0.41950   0.22005430E-07
   0.42050   0.20682126E-07
   0.42150   0.19469223E-07
   0.42250   0.18308686E-07
   0.42350   0.17163842E-07
   0.42450   0.16012747E-07
   0.42550   0.14844153E-07
   0.42650   0.13654850E-07
   0.42750   0.12447797E-07
   0.42850   0.11230712E-07
   0.42950   0.10014932E-07
   0.43050   0.88144523E-08
   0.43150   0.76450934E-08
   0.43250   0.65237402E-08
   0.43350   0.54676570E-08
   0.43450   0.44938604E-08
   0.43550   0.36185459E-08
   0.43650   0.28565739E-08
   0.43750   0.22210120E-08
   0.43850   0.17227437E-08
   0.43950   0.13701381E-08
   0.44050   0.11687932E-08
   0.44150   0.11213490E-08
   0.44250   0.12273760E-08
   0.44350   0.14833372E-08
   0.44450   0.18826265E-08
   0.44550   0.24156772E-08
   0.44650   0.30701435E-08
   0.44750   0.38311438E-08
   0.44850   0.46815680E-08
   0.44950   0.56024327E-08
   0.45050   0.65732886E-08
   0.45150   0.75726563E-08
   0.45250   0.85784952E-08
   0.45350   0.95686863E-08
   0.45450   0.10521519E-07
   0.45550   0.11416176E-07
   0.45650   0.12233201E-07
   0.45750   0.12954939E-07
   0.45850   0.13565935E-07
   0.45950   0.14053295E-07
   0.46050   0.14406982E-07
   0.46150   0.14620053E-07
   0.46250   0.14688822E-07
   0.46350   0.14612953E-07
   0.46450   0.14395469E-07
   0.46550   0.14042682E-07
   0.46650   0.13564042E-07
   0.46750   0.12971908E-07
   0.46850   0.12281240E-07
   0.46950   0.11509226E-07
   0.47050   0.10674841E-07
   0.47150   0.97983666E-08
   0.47250   0.89008436E-08
   0.47350   0.80035214E-08
   0.47450   0.71272752E-08
   0.47550   0.62920242E-08
   0.47650   0.55161689E-08
   0.47750   0.48160520E-08
   0.47850   0.42054689E-08
   0.47950   0.36952390E-08
   0.48050   0.32928524E-08
   0.48150   0.30022087E-08
   0.48250   0.28234588E-08
   0.48350   0.27529614E-08
   0.48450   0.27833615E-08
   0.48550   0.29037972E-08
   0.48650   0.31002381E-08
   0.48750   0.33559533E-08
   0.48850   0.36521022E-08
   0.48950   0.39684411E-08
   0.49050   0.42841286E-08
   0.49150   0.45786051E-08
   0.49250   0.48325228E-08
   0.49350   0.50286868E-08
   0.49450   0.51529723E-08
   0.49550   0.51952878E-08
   0.49650   0.51514735E-08
   0.49750   0.50353699E-08
   0.49850   0.49755946E-08
   0.49950   0.52555662E-08
   0.50050   0.58676437E-08
   0.50150   0.67438064E-08
   0.50250   0.78621225E-08
   0.50350   0.92149737E-08
   0.50450   0.10798143E-07
   0.50550   0.12607546E-07
   0.50650   0.14638211E-07
   0.50750   0.16884098E-07
   0.50850   0.19338342E-07
   0.50950   0.21993770E-07
   0.51050   0.24843638E-07
   0.51150   0.27882621E-07
   0.51250   0.31108112E-07
   0.51350   0.34521968E-07
   0.51450   0.38133045E-07
   0.51550   0.41961236E-07
   0.51650   0.46044875E-07
   0.51750   0.50456713E-07
   0.51850   0.55346671E-07
   0.51950   0.61089658E-07
   0.52050   0.68876155E-07
   0.52150   0.80571645E-07
   0.52250   0.93889255E-07
   0.52350   0.10672689E-06
   0.52450   0.11855207E-06
   0.52550   0.12906729E-06
   0.52650   0.13801400E-06
   0.52750   0.14516084E-06
   0.52850   0.15030753E-06
   0.52950   0.15328472E-06
   0.53050   0.15394261E-06
   0.53150   0.15213323E-06
   0.53250   0.14790558E-06
   0.53350   0.14396477E-06
   0.53450   0.14538521E-06
   0.53550   0.15092986E-06
   0.53650   0.15904075E-06
   0.53750   0.16910512E-06
   0.53850   0.18082099E-06
   0.53950   0.19399016E-06
   0.54050   0.20845081E-06
   0.54150   0.22405156E-06
   0.54250   0.24064056E-06
   0.54350   0.25806111E-06
   0.54450   0.27615033E-06
   0.54550   0.29473958E-06
   0.54650   0.31365613E-06
   0.54750   0.33272522E-06
   0.54850   0.35177291E-06
   0.54950   0.37062890E-06
   0.55050   0.38912984E-06
   0.55150   0.40712240E-06
   0.55250   0.42446652E-06
   0.55350   0.44103837E-06
   0.55450   0.45673318E-06
   0.55550   0.47146773E-06
   0.55650   0.48518257E-06
   0.55750   0.49784353E-06
   0.55850   0.50944300E-06
   0.55950   0.52000064E-06
   0.56050   0.52956312E-06
   0.56150   0.53820384E-06
   0.56250   0.54602128E-06
   0.56350   0.55313757E-06
   0.56450   0.55969554E-06
   0.56550   0.56585583E-06
   0.56650   0.57179301E-06
   0.56750   0.57769176E-06
   0.56850   0.58374195E-06
   0.56950   0.59013394E-06
   0.57050   0.59705371E-06
   0.57150   0.60467733E-06
   0.57250   0.61316626E-06
   0.57350   0.62266258E-06
   0.57450   0.63328423E-06
   0.57550   0.64512130E-06
   0.57650   0.65823281E-06
   0.57750   0.67264403E-06
   0.57850   0.68834532E-06
   0.57950   0.70529131E-06
   0.58050   0.72340208E-06
   0.58150   0.74256462E-06
   0.58250   0.76263672E-06
   0.58350   0.78345118E-06
   0.58450   0.80482209E-06
   0.58550   0.82655225E-06
   0.58650   0.84844197E-06
   0.58750   0.87029946E-06
   0.58850   0.89195220E-06
   0.58950   0.91326024E-06
   0.59050   0.93413092E-06
   0.59150   0.95453538E-06
   0.59250   0.97452732E-06
   0.59350   0.99426472E-06
   0.59450   0.10140352E-05
   0.59550   0.10342866E-05
   0.59650   0.10556643E-05
   0.59750   0.10790576E-05
   0.59850   0.11056599E-05
   0.59950   0.11370437E-05
   0.60050   0.11752601E-05
   0.60150   0.12229658E-05
   0.60250   0.12835875E-05
   0.60350   0.13615336E-05
   0.60450   0.14624597E-05
   0.60550   0.15935954E-05
   0.60650   0.17641177E-05
   0.60750   0.19855238E-05
   0.60850   0.22718502E-05
   0.60950   0.26393679E-05
   0.61050   0.31049478E-05
   0.61150   0.36815586E-05
   0.61250   0.43684918E-05
   0.61350   0.51340294E-05
   0.61450   0.58925698E-05
   0.61550   0.64925930E-05
   0.61650   0.67590940E-05
   0.61750   0.66468733E-05
   0.61850   0.65065647E-05
   0.61950   0.74968334E-05
   0.62050   0.10218028E-04
   0.62150   0.13831376E-04
   0.62250   0.17529996E-04
   0.62350   0.20947398E-04
   0.62450   0.23407720E-04
   0.62550   0.24259263E-04
   0.62650   0.23148848E-04
   0.62750   0.20394940E-04
   0.62850   0.17140330E-04
   0.62950   0.15012408E-04
   0.63050   0.15358228E-04
   0.63150   0.18510891E-04
   0.63250   0.23626117E-04
   0.63350   0.29241588E-04
   0.63450   0.34140005E-04
   0.63550   0.37839745E-04
   0.63650   0.40240342E-04
   0.63750   0.38781902E-04
   0.63850   0.53834570E-04
   0.63950   0.52645210E-04
   0.64050   0.54281809E-04
   0.64150   0.57709338E-04
   0.64250   0.64724853E-04
   0.64350   0.77473102E-04
   0.64450   0.97383163E-04
   0.64550   0.12448846E-03
   0.64650   0.15721246E-03
   0.64750   0.19446066E-03
   0.64850   0.25862042E-03
   0.64950   0.42326568E-03
   0.65050   0.65691338E-03
   0.65150   0.99234842E-03
   0.65250   0.14960709E-02
   0.65350   0.20062204E-02
   0.65450   0.23062781E-02
   0.65550   0.23480088E-02
   0.65650   0.22492043E-02
   0.65750   0.21616558E-02
   0.65850   0.23301353E-02
   0.65950   0.29410890E-02
   0.66050   0.29650312E-02
   0.66150   0.30501178E-02
   0.66250   0.34047223E-02
   0.66350   0.39711352E-02
   0.66450   0.47980561E-02
   0.66550   0.60393838E-02
   0.66650   0.81721051E-02
   0.66750   0.14801231E-01
   0.66850   0.15942079E+00
   0.66950   0.70165269E-01
   0.67050   0.11194736E+00
   0.67150   0.14395307E+00
   0.67250   0.13375030E+00
   0.67350   0.41967267E+00
   0.67450   0.86626500E+00
   0.67550   0.87115490E+00
   0.67650   0.16241360E+01
   0.67750   0.15200576E+01
   0.67850   0.17768068E+01
   0.67950   0.11573577E+01
   0.68050   0.11010562E+01
   0.68150   0.71958464E+00
   0.68250   0.53588098E+00
   0.68350   0.45393431E+00
   0.68450   0.33883089E+00
   0.68550   0.11386868E+00
   0.68650   0.51705603E-01
   0.68750   0.41726395E-01
   0.68850   0.27220409E-01
   0.68950   0.15879007E-01
   0.69050   0.10994755E-01
   0.69150   0.96422341E-02
   0.69250   0.91812555E-02
   0.69350   0.90543395E-02
   0.69450   0.93595022E-02
   0.69550   0.95425053E-02
   0.69650   0.86979754E-02
   0.69750   0.66417605E-02
   0.69850   0.41964981E-02
   0.69950   0.24159402E-02
   0.70050   0.17462340E-02
   0.70150   0.18826120E-02
   0.70250   0.22292861E-02
   0.70350   0.23803695E-02
   0.70450   0.22623290E-02
   0.70550   0.20036960E-02
   0.70650   0.16586687E-02
   0.70750   0.12754066E-02
   0.70850   0.95026189E-03
   0.70950   0.72443765E-03
   0.71050   0.59205241E-03
   0.71150   0.52698469E-03
   0.71250   0.50147134E-03
   0.71350   0.49436413E-03
   0.71450   0.49253722E-03
   0.71550   0.48916548E-03
   0.71650   0.48129645E-03
   0.71750   0.46789783E-03
   0.71850   0.44874020E-03
   0.71950   0.42401324E-03
   0.72050   0.39437163E-03
   0.72150   0.36108316E-03
   0.72250   0.32603912E-03
   0.72350   0.29152774E-03
   0.72450   0.25981746E-03
   0.72550   0.23269636E-03
   0.72650   0.21114023E-03
   0.72750   0.19522235E-03
   0.72850   0.18427435E-03
   0.72950   0.17721859E-03
   0.73050   0.17296425E-03
   0.73150   0.17082343E-03
   0.73250   0.17098157E-03
   0.73350   0.17334333E-03
   0.73450   0.17691258E-03
   0.73550   0.18142512E-03
   0.73650   0.18668934E-03
   0.73750   0.19237683E-03
   0.73850   0.19802635E-03
   0.73950   0.20308630E-03
   0.74050   0.20698248E-03
   0.74150   0.20920181E-03
   0.74250   0.20937635E-03
   0.74350   0.20734947E-03
   0.74450   0.20320811E-03
   0.74550   0.19727105E-03
   0.74650   0.19003329E-03
   0.74750   0.18207773E-03
   0.74850   0.17397362E-03
   0.74950   0.16618497E-03
   0.75050   0.15900879E-03
   0.75150   0.15255576E-03
   0.75250   0.14677594E-03
   0.75350   0.14152248E-03
   0.75450   0.13663768E-03
   0.75550   0.13203992E-03
   0.75650   0.12778795E-03
   0.75750   0.12410260E-03
   0.75850   0.12133570E-03
   0.75950   0.11988980E-03
   0.76050   0.12010663E-03
   0.76150   0.12215151E-03
   0.76250   0.12592378E-03
   0.76350   0.13101719E-03
   0.76450   0.13674452E-03
   0.76550   0.14222642E-03
   0.76650   0.14653154E-03
   0.76750   0.14884402E-03
   0.76850   0.14862583E-03
   0.76950   0.14574137E-03
   0.77050   0.14051599E-03
   0.77150   0.13371294E-03
   0.77250   0.12642969E-03
   0.77350   0.11993066E-03
   0.77450   0.11544608E-03
   0.77550   0.11397257E-03
   0.77650   0.11610983E-03
   0.77750   0.12195942E-03
   0.77850   0.13109997E-03
   0.77950   0.14263409E-03
   0.78050   0.15526450E-03
   0.78150   0.16717378E-03
   0.78250   0.17541388E-03
   0.78350   0.17934755E-03
   0.78450   0.18132587E-03
   0.78550   0.18297847E-03
   0.78650   0.18555167E-03
   0.78750   0.19000335E-03
   0.78850   0.19690192E-03
   0.78950   0.20635138E-03
   0.79050   0.21798607E-03
   0.79150   0.23103859E-03
   0.79250   0.24446839E-03
   0.79350   0.25712833E-03
   0.79450   0.26794223E-03
   0.79550   0.27606607E-03
   0.79650   0.28101055E-03
   0.79750   0.28270963E-03
   0.79850   0.28152909E-03
   0.79950   0.27821667E-03
   0.80050   0.27380275E-03
   0.80150   0.26946582E-03
   0.80250   0.26637971E-03
   0.80350   0.26556174E-03
   0.80450   0.26774165E-03
   0.80550   0.27326815E-03
   0.80650   0.28206667E-03
   0.80750   0.29365497E-03
   0.80850   0.30721549E-03
   0.80950   0.32171470E-03
   0.81050   0.33605489E-03
   0.81150   0.34923849E-03
   0.81250   0.36052562E-03
   0.81350   0.36956699E-03
   0.81450   0.37649719E-03
   0.81550   0.38197747E-03
   0.81650   0.38718028E-03
   0.81750   0.39371266E-03
   0.81850   0.40347912E-03
   0.81950   0.41849227E-03
   0.82050   0.44064436E-03
   0.82150   0.47146229E-03
   0.82250   0.51187229E-03
   0.82350   0.56200818E-03
   0.82450   0.62111259E-03
   0.82550   0.68766891E-03
   0.82650   0.75956294E-03
   0.82750   0.83304039E-03
   0.82850   0.90396276E-03
   0.82950   0.96844847E-03
   0.83050   0.10229885E-02
   0.83150   0.10649478E-02
   0.83250   0.10931712E-02
   0.83350   0.11086230E-02
   0.83450   0.11150168E-02
   0.83550   0.11193904E-02
   0.83650   0.11325901E-02
   0.83750   0.11696683E-02
   0.83850   0.12502791E-02
   0.83950   0.13993254E-02
   0.84050   0.16484874E-02
   0.84150   0.20402418E-02
   0.84250   0.26361165E-02
   0.84350   0.34828230E-02
   0.84450   0.45120586E-02
   0.84550   0.57092682E-02
   0.84650   0.70904968E-02
   0.84750   0.86484998E-02
   0.84850   0.10283124E-01
   0.84950   0.11882762E-01
   0.85050   0.13424914E-01
   0.85150   0.14876842E-01
   0.85250   0.16201036E-01
   0.85350   0.17365158E-01
   0.85450   0.18345121E-01
   0.85550   0.19125251E-01
   0.85650   0.19697141E-01
   0.85750   0.20058384E-01
   0.85850   0.20211946E-01
   0.85950   0.20166826E-01
   0.86050   0.19940257E-01
   0.86150   0.19561332E-01
   0.86250   0.19075334E-01
   0.86350   0.18547617E-01
   0.86450   0.18065473E-01
   0.86550   0.17737022E-01
   0.86650   0.17687591E-01
   0.86750   0.18056175E-01
   0.86850   0.18996043E-01
   0.86950   0.20683268E-01
   0.87050   0.23334125E-01
   0.87150   0.27227232E-01
   0.87250   0.32718521E-01
   0.87350   0.40230528E-01
   0.87450   0.50224535E-01
   0.87550   0.63407697E-01
   0.87650   0.83221719E-01
   0.87750   0.15684228E+00
   0.87850   0.17788292E+00
   0.87950   0.14111766E+00
   0.88050   0.10108279E+00
   0.88150   0.98278075E-01
   0.88250   0.10174608E+00
   0.88350   0.11018529E+00
   0.88450   0.14590049E+00
   0.88550   0.28537214E+00
   0.88650   0.38859239E+00
   0.88750   0.42841670E+00
   0.88850   0.48082700E+00
   0.88950   0.58202726E+00
   0.89050   0.63778913E+00
   0.89150   0.72180414E+00
   0.89250   0.87476993E+00
   0.89350   0.94237649E+00
   0.89450   0.84423685E+00
   0.89550   0.78562486E+00
   0.89650   0.99353677E+00
   0.89750   0.10043944E+01
   0.89850   0.98453599E+00
   0.89950   0.12039994E+01
   0.90050   0.13353187E+01
   0.90150   0.14022276E+01
   0.90250   0.14685322E+01
   0.90350   0.14879204E+01
   0.90450   0.14390584E+01
   0.90550   0.14137269E+01
   0.90650   0.14476857E+01
   0.90750   0.14633374E+01
   0.90850   0.15917442E+01
   0.90950   0.18049436E+01
   0.91050   0.20617962E+01
   0.91150   0.22551782E+01
   0.91250   0.19233081E+01
   0.91350   0.18395432E+01
   0.91450   0.19054641E+01
   0.91550   0.20210695E+01
   0.91650   0.18885611E+01
   0.91750   0.18667572E+01
   0.91850   0.18227026E+01
   0.91950   0.17283432E+01
   0.92050   0.16043953E+01
   0.92150   0.15004578E+01
   0.92250   0.14197940E+01
   0.92350   0.13516253E+01
   0.92450   0.12887065E+01
   0.92550   0.12290617E+01
   0.92650   0.11710997E+01
   0.92750   0.11115662E+01
   0.92850   0.10489436E+01
   0.92950   0.98535538E+00
   0.93050   0.92495596E+00
   0.93150   0.87176758E+00
   0.93250   0.82871842E+00
   0.93350   0.79776025E+00
   0.93450   0.78035384E+00
   0.93550   0.77754873E+00
   0.93650   0.78880399E+00
   0.93750   0.80892152E+00
   0.93850   0.82560331E+00
   0.93950   0.82618481E+00
   0.94050   0.80984312E+00
   0.94150   0.76619339E+00
   0.94250   0.60898900E+00
   0.94350   0.43788338E+00
   0.94450   0.38829854E+00
   0.94550   0.36554515E+00
   0.94650   0.34267172E+00
   0.94750   0.31927127E+00
   0.94850   0.29738793E+00
   0.94950   0.27805582E+00
   0.95050   0.26120794E+00
   0.95150   0.24617808E+00
   0.95250   0.23237461E+00
   0.95350   0.21976745E+00
   0.95450   0.20896515E+00
   0.95550   0.20101464E+00
   0.95650   0.19591959E+00
   0.95750   0.19261608E+00
   0.95850   0.19097790E+00
   0.95950   0.19069497E+00
   0.96050   0.19103868E+00
   0.96150   0.19109997E+00
   0.96250   0.19011420E+00
   0.96350   0.18771733E+00
   0.96450   0.18404810E+00
   0.96550   0.17970516E+00
   0.96650   0.17562909E+00
   0.96750   0.17297927E+00
   0.96850   0.17303190E+00
   0.96950   0.17706589E+00
   0.97050   0.18615931E+00
   0.97150   0.20083430E+00
   0.97250   0.22060807E+00
   0.97350   0.24369963E+00
   0.97450   0.26722670E+00
   0.97550   0.28804022E+00
   0.97650   0.30432516E+00
   0.97750   0.31703421E+00
   0.97850   0.32897323E+00
   0.97950   0.34175244E+00
   0.98050   0.35476747E+00
   0.98150   0.36839908E+00
   0.98250   0.38539055E+00
   0.98350   0.40954247E+00
   0.98450   0.44476172E+00
   0.98550   0.49471968E+00
   0.98650   0.56195933E+00
   0.98750   0.64601004E+00
   0.98850   0.74136239E+00
   0.98950   0.83492273E+00
   0.99050   0.91315669E+00
   0.99150   0.97871673E+00
   0.99250   0.10430943E+01
   0.99350   0.11140199E+01
   0.99450   0.11875606E+01
   0.99550   0.12542272E+01
   0.99650   0.13048958E+01
   0.99750   0.13361466E+01
   0.99850   0.13500668E+01
   0.99950   0.13507457E+01
