# Transmission, k-averaged
# Date: 2021-05-13
#   E [eV]           T [G0]
   0.00050   0.11093983E-02
   0.00150   0.47622717E-03
   0.00250   0.23816656E-02
   0.00350   0.54548867E-02
   0.00450   0.46568927E-02
   0.00550   0.49920105E-02
   0.00650   0.97704185E-02
   0.00750   0.60863444E-02
   0.00850   0.39901291E-02
   0.00950   0.15194773E-01
   0.01050   0.38497827E-02
   0.01150   0.91026751E-02
   0.01250   0.76523591E-02
   0.01350   0.36596456E-02
   0.01450   0.44303954E-01
   0.01550   0.55399179E-02
   0.01650   0.36213999E-02
   0.01750   0.23151150E-01
   0.01850   0.10785514E-01
   0.01950   0.33235094E-02
   0.02050   0.49098926E-02
   0.02150   0.60794562E-01
   0.02250   0.85959900E-02
   0.02350   0.31674658E-02
   0.02450   0.38258086E-02
   0.02550   0.17586511E-01
   0.02650   0.27514951E-01
   0.02750   0.44253911E-02
   0.02850   0.28529055E-02
   0.02950   0.40735579E-02
   0.03050   0.17530335E-01
   0.03150   0.37806746E-01
   0.03250   0.53538620E-02
   0.03350   0.29106035E-02
   0.03450   0.31272192E-02
   0.03550   0.66934070E-02
   0.03650   0.54187614E-01
   0.03750   0.17824702E-01
   0.03850   0.47323778E-02
   0.03950   0.31056362E-02
   0.04050   0.35497854E-02
   0.04150   0.74016778E-02
   0.04250   0.45665357E-01
   0.04350   0.30489858E-01
   0.04450   0.86813616E-02
   0.04550   0.67914412E-02
   0.04650   0.78557925E-02
   0.04750   0.11293199E-01
   0.04850   0.19144554E-01
   0.04950   0.28029097E-01
   0.05050   0.22243790E-01
   0.05150   0.13731192E-01
   0.05250   0.96350638E-02
   0.05350   0.81450138E-02
   0.05450   0.81590135E-02
   0.05550   0.94008632E-02
   0.05650   0.11753442E-01
   0.05750   0.14055990E-01
   0.05850   0.13796100E-01
   0.05950   0.11213106E-01
   0.06050   0.87611787E-02
   0.06150   0.73010698E-02
   0.06250   0.67149391E-02
   0.06350   0.68200189E-02
   0.06450   0.75144679E-02
   0.06550   0.86308327E-02
   0.06650   0.96460916E-02
   0.06750   0.97466316E-02
   0.06850   0.87833470E-02
   0.06950   0.74896170E-02
   0.07050   0.64745150E-02
   0.07150   0.59071444E-02
   0.07250   0.57695499E-02
   0.07350   0.60179532E-02
   0.07450   0.65956651E-02
   0.07550   0.73545971E-02
   0.07650   0.79619307E-02
   0.07750   0.80254581E-02
   0.07850   0.74924412E-02
   0.07950   0.67091789E-02
   0.08050   0.60291640E-02
   0.08150   0.56150509E-02
   0.08250   0.55051702E-02
   0.08350   0.56990292E-02
   0.08450   0.61813490E-02
   0.08550   0.68870964E-02
   0.08650   0.76254187E-02
   0.08750   0.80665173E-02
   0.08850   0.79620592E-02
   0.08950   0.74135493E-02
   0.09050   0.67495131E-02
   0.09150   0.62113949E-02
   0.09250   0.58333911E-02
   0.09350   0.56643565E-02
   0.09450   0.57107382E-02
   0.09550   0.58625326E-02
   0.09650   0.59765675E-02
   0.09750   0.59201033E-02
   0.09850   0.56434083E-02
   0.09950   0.52105300E-02
   0.10050   0.47395658E-02
   0.10150   0.43254271E-02
   0.10250   0.40138671E-02
   0.10350   0.38137704E-02
   0.10450   0.37144260E-02
   0.10550   0.36946407E-02
   0.10650   0.37247308E-02
   0.10750   0.37667733E-02
   0.10850   0.37793210E-02
   0.10950   0.37297432E-02
   0.11050   0.36084331E-02
   0.11150   0.34325065E-02
   0.11250   0.32346218E-02
   0.11350   0.30468791E-02
   0.11450   0.28910942E-02
   0.11550   0.27772826E-02
   0.11650   0.27060977E-02
   0.11750   0.26714588E-02
   0.11850   0.26621313E-02
   0.11950   0.26628668E-02
   0.12050   0.26564482E-02
   0.12150   0.26275758E-02
   0.12250   0.25677371E-02
   0.12350   0.24782652E-02
   0.12450   0.23691892E-02
   0.12550   0.22545778E-02
   0.12650   0.21474934E-02
   0.12750   0.20570019E-02
   0.12850   0.19874738E-02
   0.12950   0.19391330E-02
   0.13050   0.19088774E-02
   0.13150   0.18909987E-02
   0.13250   0.18779617E-02
   0.13350   0.18616216E-02
   0.13450   0.18350478E-02
   0.13550   0.17945224E-02
   0.13650   0.17407351E-02
   0.13750   0.16783925E-02
   0.13850   0.16144345E-02
   0.13950   0.15558923E-02
   0.14050   0.15083553E-02
   0.14150   0.14753353E-02
   0.14250   0.14582620E-02
   0.14350   0.14567153E-02
   0.14450   0.14686757E-02
   0.14550   0.14907975E-02
   0.14650   0.15188779E-02
   0.14750   0.15486808E-02
   0.14850   0.15770611E-02
   0.14950   0.16030006E-02
   0.15050   0.16280423E-02
   0.15150   0.16558833E-02
   0.15250   0.16913631E-02
   0.15350   0.17393290E-02
   0.15450   0.18037118E-02
   0.15550   0.18868628E-02
   0.15650   0.19890419E-02
   0.15750   0.21079956E-02
   0.15850   0.22387526E-02
   0.15950   0.23739347E-02
   0.16050   0.25048722E-02
   0.16150   0.26234654E-02
   0.16250   0.27241909E-02
   0.16350   0.28053629E-02
   0.16450   0.28690714E-02
   0.16550   0.29199505E-02
   0.16650   0.29634538E-02
   0.16750   0.30043100E-02
   0.16850   0.30454767E-02
   0.16950   0.30875625E-02
   0.17050   0.31285228E-02
   0.17150   0.31633601E-02
   0.17250   0.31833441E-02
   0.17350   0.31731958E-02
   0.17450   0.30998688E-02
   0.17550   0.28832266E-02
   0.17650   0.25365411E-02
   0.17750   0.22439354E-02
   0.17850   0.20199150E-02
   0.17950   0.18409473E-02
   0.18050   0.16922005E-02
   0.18150   0.15647680E-02
   0.18250   0.14528286E-02
   0.18350   0.13522445E-02
   0.18450   0.12598892E-02
   0.18550   0.11733429E-02
   0.18650   0.10907800E-02
   0.18750   0.10109579E-02
   0.18850   0.93323662E-03
   0.18950   0.85757487E-03
   0.19050   0.78445469E-03
   0.19150   0.71471906E-03
   0.19250   0.64933486E-03
   0.19350   0.58911316E-03
   0.19450   0.53441222E-03
   0.19550   0.48480550E-03
   0.19650   0.43862415E-03
   0.19750   0.39219172E-03
   0.19850   0.33854242E-03
   0.19950   0.26613023E-03
   0.20050   0.16311661E-03
   0.20150   0.48716480E-04
   0.20250   0.10842333E-05
   0.20350   0.18485312E-05
   0.20450   0.46334655E-04
   0.20550   0.14388403E-03
   0.20650   0.24545583E-03
   0.20750   0.33183128E-03
   0.20850   0.40292423E-03
   0.20950   0.46249040E-03
   0.21050   0.51386229E-03
   0.21150   0.55930321E-03
   0.21250   0.60010597E-03
   0.21350   0.63674973E-03
   0.21450   0.66893885E-03
   0.21550   0.69527980E-03
   0.21650   0.71154354E-03
   0.21750   0.70507731E-03
   0.21850   0.67290379E-03
   0.21950   0.64061279E-03
   0.22050   0.61351142E-03
   0.22150   0.59032865E-03
   0.22250   0.57025522E-03
   0.22350   0.55300503E-03
   0.22450   0.53857389E-03
   0.22550   0.52711111E-03
   0.22650   0.51886414E-03
   0.22750   0.51415391E-03
   0.22850   0.51335339E-03
   0.22950   0.51683659E-03
   0.23050   0.52484358E-03
   0.23150   0.53715584E-03
   0.23250   0.55235211E-03
   0.23350   0.56587963E-03
   0.23450   0.56243810E-03
   0.23550   0.51589205E-03
   0.23650   0.45466592E-03
   0.23750   0.42309565E-03
   0.23850   0.42758905E-03
   0.23950   0.42783472E-03
   0.24050   0.39542807E-03
   0.24150   0.34074945E-03
   0.24250   0.28315620E-03
   0.24350   0.23290525E-03
   0.24450   0.19238176E-03
   0.24550   0.16061231E-03
   0.24650   0.13580442E-03
   0.24750   0.11628604E-03
   0.24850   0.10073421E-03
   0.24950   0.88162829E-04
   0.25050   0.77851852E-04
   0.25150   0.69277077E-04
   0.25250   0.62054824E-04
   0.25350   0.55901550E-04
   0.25450   0.50605318E-04
   0.25550   0.46005749E-04
   0.25650   0.41979933E-04
   0.25750   0.38432485E-04
   0.25850   0.35288391E-04
   0.25950   0.32487882E-04
   0.26050   0.29982673E-04
   0.26150   0.27733213E-04
   0.26250   0.25706649E-04
   0.26350   0.23875322E-04
   0.26450   0.22215649E-04
   0.26550   0.20707290E-04
   0.26650   0.19332536E-04
   0.26750   0.18075843E-04
   0.26850   0.16923490E-04
   0.26950   0.15863323E-04
   0.27050   0.14884553E-04
   0.27150   0.13977609E-04
   0.27250   0.13134010E-04
   0.27350   0.12346267E-04
   0.27450   0.11607795E-04
   0.27550   0.10912845E-04
   0.27650   0.10256433E-04
   0.27750   0.96342837E-05
   0.27850   0.90427811E-05
   0.27950   0.84789135E-05
   0.28050   0.79402289E-05
   0.28150   0.74247905E-05
   0.28250   0.69311309E-05
   0.28350   0.64582014E-05
   0.28450   0.60053258E-05
   0.28550   0.55721462E-05
   0.28650   0.51585698E-05
   0.28750   0.47647191E-05
   0.28850   0.43908885E-05
   0.28950   0.40375180E-05
   0.29050   0.37051996E-05
   0.29150   0.33947224E-05
   0.29250   0.31071861E-05
   0.29350   0.28441875E-05
   0.29450   0.26080684E-05
   0.29550   0.24020892E-05
   0.29650   0.22298836E-05
   0.29750   0.20912221E-05
   0.29850   0.19621948E-05
   0.29950   0.18079423E-05
   0.30050   0.17445282E-05
   0.30150   0.18320189E-05
   0.30250   0.20739749E-05
   0.30350   0.24795061E-05
   0.30450   0.30582676E-05
   0.30550   0.38084086E-05
   0.30650   0.47051576E-05
   0.30750   0.56952426E-05
   0.30850   0.67021924E-05
   0.30950   0.76423776E-05
   0.31050   0.84447174E-05
   0.31150   0.90647718E-05
   0.31250   0.94883389E-05
   0.31350   0.97260881E-05
   0.31450   0.98041410E-05
   0.31550   0.97550301E-05
   0.31650   0.96112262E-05
   0.31750   0.94015368E-05
   0.31850   0.91496868E-05
   0.31950   0.88742690E-05
   0.32050   0.85893644E-05
   0.32150   0.83054201E-05
   0.32250   0.80301388E-05
   0.32350   0.77693048E-05
   0.32450   0.75274997E-05
   0.32550   0.73087544E-05
   0.32650   0.71171507E-05
   0.32750   0.69573830E-05
   0.32850   0.68350787E-05
   0.32950   0.67557517E-05
   0.33050   0.67172004E-05
   0.33150   0.66734192E-05
   0.33250   0.64117248E-05
   0.33350   0.55342662E-05
   0.33450   0.44670564E-05
   0.33550   0.39848255E-05
   0.33650   0.38656285E-05
   0.33750   0.38451740E-05
   0.33850   0.38384442E-05
   0.33950   0.38258281E-05
   0.34050   0.38046560E-05
   0.34150   0.37759535E-05
   0.34250   0.37411439E-05
   0.34350   0.37013481E-05
   0.34450   0.36573408E-05
   0.34550   0.36096521E-05
   0.34650   0.35586743E-05
   0.34750   0.35047410E-05
   0.34850   0.34481732E-05
   0.34950   0.33892941E-05
   0.35050   0.33284146E-05
   0.35150   0.32657961E-05
   0.35250   0.32015896E-05
   0.35350   0.31357561E-05
   0.35450   0.30679603E-05
   0.35550   0.29974360E-05
   0.35650   0.29227890E-05
   0.35750   0.28416746E-05
   0.35850   0.27501703E-05
   0.35950   0.26413379E-05
   0.36050   0.25012725E-05
   0.36150   0.22964182E-05
   0.36250   0.19476984E-05
   0.36350   0.14994532E-05
   0.36450   0.11643598E-05
   0.36550   0.93304266E-06
   0.36650   0.76463510E-06
   0.36750   0.63654016E-06
   0.36850   0.53617947E-06
   0.36950   0.45596204E-06
   0.37050   0.39097267E-06
   0.37150   0.33784698E-06
   0.37250   0.29418013E-06
   0.37350   0.25819503E-06
   0.37450   0.22854603E-06
   0.37550   0.20419768E-06
   0.37650   0.18434818E-06
   0.37750   0.16838109E-06
   0.37850   0.15583703E-06
   0.37950   0.14639822E-06
   0.38050   0.13984327E-06
   0.38150   0.13554008E-06
   0.38250   0.13029421E-06
   0.38350   0.12371072E-06
   0.38450   0.11889276E-06
   0.38550   0.11634328E-06
   0.38650   0.11585171E-06
   0.38750   0.11720103E-06
   0.38850   0.12026841E-06
   0.38950   0.12502693E-06
   0.39050   0.13152969E-06
   0.39150   0.13989005E-06
   0.39250   0.15025896E-06
   0.39350   0.16279648E-06
   0.39450   0.17763475E-06
   0.39550   0.19483092E-06
   0.39650   0.21431258E-06
   0.39750   0.23582308E-06
   0.39850   0.25887914E-06
   0.39950   0.28275454E-06
   0.40050   0.30650202E-06
   0.40150   0.32901701E-06
   0.40250   0.34913791E-06
   0.40350   0.36576697E-06
   0.40450   0.37799123E-06
   0.40550   0.38518149E-06
   0.40650   0.38705346E-06
   0.40750   0.38368236E-06
   0.40850   0.37547053E-06
   0.40950   0.36307239E-06
   0.41050   0.34727825E-06
   0.41150   0.32883759E-06
   0.41250   0.30812191E-06
   0.41350   0.28430873E-06
   0.41450   0.25637596E-06
   0.41550   0.23374474E-06
   0.41650   0.22029191E-06
   0.41750   0.21279288E-06
   0.41850   0.20913993E-06
   0.41950   0.20814950E-06
   0.42050   0.20908600E-06
   0.42150   0.21145107E-06
   0.42250   0.21488759E-06
   0.42350   0.21913104E-06
   0.42450   0.22398237E-06
   0.42550   0.22929149E-06
   0.42650   0.23494613E-06
   0.42750   0.24086410E-06
   0.42850   0.24698736E-06
   0.42950   0.25327731E-06
   0.43050   0.25971116E-06
   0.43150   0.26627879E-06
   0.43250   0.27298015E-06
   0.43350   0.27982313E-06
   0.43450   0.28682175E-06
   0.43550   0.29399450E-06
   0.43650   0.30136314E-06
   0.43750   0.30895151E-06
   0.43850   0.31678468E-06
   0.43950   0.32488808E-06
   0.44050   0.33328698E-06
   0.44150   0.34200599E-06
   0.44250   0.35106865E-06
   0.44350   0.36049715E-06
   0.44450   0.37031239E-06
   0.44550   0.38053361E-06
   0.44650   0.39117870E-06
   0.44750   0.40226419E-06
   0.44850   0.41380548E-06
   0.44950   0.42581703E-06
   0.45050   0.43831270E-06
   0.45150   0.45130597E-06
   0.45250   0.46481040E-06
   0.45350   0.47883981E-06
   0.45450   0.49340878E-06
   0.45550   0.50853271E-06
   0.45650   0.52422820E-06
   0.45750   0.54051344E-06
   0.45850   0.55740816E-06
   0.45950   0.57493418E-06
   0.46050   0.59311549E-06
   0.46150   0.61197892E-06
   0.46250   0.63155517E-06
   0.46350   0.65188027E-06
   0.46450   0.67299851E-06
   0.46550   0.69496815E-06
   0.46650   0.71786991E-06
   0.46750   0.74182316E-06
   0.46850   0.76701161E-06
   0.46950   0.79372433E-06
   0.47050   0.82241667E-06
   0.47150   0.85378639E-06
   0.47250   0.88883831E-06
   0.47350   0.92885017E-06
   0.47450   0.97507052E-06
   0.47550   0.10279551E-05
   0.47650   0.10860390E-05
   0.47750   0.11452856E-05
   0.47850   0.12001872E-05
   0.47950   0.12465848E-05
   0.48050   0.12839354E-05
   0.48150   0.13150134E-05
   0.48250   0.13438136E-05
   0.48350   0.13737181E-05
   0.48450   0.14068390E-05
   0.48550   0.14441911E-05
   0.48650   0.14861102E-05
   0.48750   0.15326109E-05
   0.48850   0.15836083E-05
   0.48950   0.16390361E-05
   0.49050   0.16989027E-05
   0.49150   0.17633204E-05
   0.49250   0.18325297E-05
   0.49350   0.19069430E-05
   0.49450   0.19872405E-05
   0.49550   0.20746168E-05
   0.49650   0.21715111E-05
   0.49750   0.22840770E-05
   0.49850   0.24249182E-05
   0.49950   0.25838635E-05
   0.50050   0.27426115E-05
   0.50150   0.29024056E-05
   0.50250   0.30660265E-05
   0.50350   0.32353571E-05
   0.50450   0.34117761E-05
   0.50550   0.35964260E-05
   0.50650   0.37903490E-05
   0.50750   0.39945648E-05
   0.50850   0.42101196E-05
   0.50950   0.44381218E-05
   0.51050   0.46797786E-05
   0.51150   0.49364312E-05
   0.51250   0.52096061E-05
   0.51350   0.55010828E-05
   0.51450   0.58130086E-05
   0.51550   0.61480955E-05
   0.51650   0.65100162E-05
   0.51750   0.69042931E-05
   0.51850   0.73406704E-05
   0.51950   0.78408393E-05
   0.52050   0.84638059E-05
   0.52150   0.92668943E-05
   0.52250   0.10128239E-04
   0.52350   0.11003529E-04
   0.52450   0.11908756E-04
   0.52550   0.12858726E-04
   0.52650   0.13865161E-04
   0.52750   0.14938558E-04
   0.52850   0.16089482E-04
   0.52950   0.17329690E-04
   0.53050   0.18673805E-04
   0.53150   0.20143309E-04
   0.53250   0.21778194E-04
   0.53350   0.23631494E-04
   0.53450   0.25646907E-04
   0.53550   0.27790638E-04
   0.53650   0.30089595E-04
   0.53750   0.32571334E-04
   0.53850   0.35261797E-04
   0.53950   0.38187471E-04
   0.54050   0.41376512E-04
   0.54150   0.44859393E-04
   0.54250   0.48669350E-04
   0.54350   0.52843036E-04
   0.54450   0.57421756E-04
   0.54550   0.62453248E-04
   0.54650   0.67993540E-04
   0.54750   0.74108262E-04
   0.54850   0.80873448E-04
   0.54950   0.88376451E-04
   0.55050   0.96717595E-04
   0.55150   0.10601262E-03
   0.55250   0.11639582E-03
   0.55350   0.12802398E-03
   0.55450   0.14108088E-03
   0.55550   0.15578303E-03
   0.55650   0.17238662E-03
   0.55750   0.19119613E-03
   0.55850   0.21257537E-03
   0.55950   0.23696119E-03
   0.56050   0.26488156E-03
   0.56150   0.29697892E-03
   0.56250   0.33404242E-03
   0.56350   0.37705459E-03
   0.56450   0.42726952E-03
   0.56550   0.48638042E-03
   0.56650   0.55705570E-03
   0.56750   0.64578647E-03
   0.56850   0.79198723E-03
   0.56950   0.13960912E-02
   0.57050   0.13268745E-02
   0.57150   0.12212511E-02
   0.57250   0.13720532E-02
   0.57350   0.16196549E-02
   0.57450   0.19346313E-02
   0.57550   0.23295926E-02
   0.57650   0.28262311E-02
   0.57750   0.34528296E-02
   0.57850   0.42439979E-02
   0.57950   0.52390732E-02
   0.58050   0.64778933E-02
   0.58150   0.80112657E-02
   0.58250   0.23603603E-01
   0.58350   0.12020967E-01
   0.58450   0.14359748E-01
   0.58550   0.17021012E-01
   0.58650   0.20363884E-01
   0.58750   0.25623644E-01
   0.58850   0.36731727E-01
   0.58950   0.71850039E-01
   0.59050   0.31887946E+00
   0.59150   0.34601614E+00
   0.59250   0.73971666E-01
   0.59350   0.34562118E-01
   0.59450   0.25487090E-01
   0.59550   0.25836999E-01
   0.59650   0.51456757E-01
   0.59750   0.18009663E+00
   0.59850   0.14431618E+00
   0.59950   0.35587326E+00
   0.60050   0.13261333E+00
   0.60150   0.10023377E+00
   0.60250   0.15430166E+00
   0.60350   0.20877315E+00
   0.60450   0.15501274E+00
   0.60550   0.40735587E+00
   0.60650   0.33546221E-01
   0.60750   0.11597954E-01
   0.60850   0.47138054E-02
   0.60950   0.37851261E-02
   0.61050   0.17192113E-02
   0.61150   0.71908953E-02
   0.61250   0.31371014E-02
   0.61350   0.36694906E-02
   0.61450   0.11359788E-01
   0.61550   0.12274561E-01
   0.61650   0.65390849E-02
   0.61750   0.19409952E-02
   0.61850   0.43601266E-03
   0.61950   0.85706852E-03
   0.62050   0.11506052E-02
   0.62150   0.79949811E-03
   0.62250   0.65947743E-03
   0.62350   0.69804885E-03
   0.62450   0.82776515E-03
   0.62550   0.82511158E-03
   0.62650   0.64447249E-03
   0.62750   0.40870268E-03
   0.62850   0.26828071E-03
   0.62950   0.25945925E-03
   0.63050   0.30738980E-03
   0.63150   0.31988218E-03
   0.63250   0.27695915E-03
   0.63350   0.26568986E-03
   0.63450   0.33919443E-03
   0.63550   0.61159418E-03
   0.63650   0.12402891E-02
   0.63750   0.22539631E-02
   0.63850   0.34247951E-02
   0.63950   0.44235531E-02
   0.64050   0.50067529E-02
   0.64150   0.50819293E-02
   0.64250   0.46738721E-02
   0.64350   0.38953128E-02
   0.64450   0.29334321E-02
   0.64550   0.20045673E-02
   0.64650   0.12794875E-02
   0.64750   0.83489425E-03
   0.64850   0.65712427E-03
   0.64950   0.67419867E-03
   0.65050   0.78990118E-03
   0.65150   0.91246830E-03
   0.65250   0.97620906E-03
   0.65350   0.95167756E-03
   0.65450   0.84281887E-03
   0.65550   0.67592791E-03
   0.65650   0.48698171E-03
   0.65750   0.31091861E-03
   0.65850   0.17383794E-03
   0.65950   0.88670800E-04
   0.66050   0.54845754E-04
   0.66150   0.61489933E-04
   0.66250   0.92487673E-04
   0.66350   0.13144173E-03
   0.66450   0.16526689E-03
   0.66550   0.18601285E-03
   0.66650   0.19106166E-03
   0.66750   0.18210420E-03
   0.66850   0.16343627E-03
   0.66950   0.14015606E-03
   0.67050   0.11674305E-03
   0.67150   0.96270604E-04
   0.67250   0.80250597E-04
   0.67350   0.68930967E-04
   0.67450   0.61799306E-04
   0.67550   0.58070749E-04
   0.67650   0.57016445E-04
   0.67750   0.58084323E-04
   0.67850   0.60847571E-04
   0.67950   0.64869128E-04
   0.68050   0.69583257E-04
   0.68150   0.74271891E-04
   0.68250   0.78167708E-04
   0.68350   0.80666665E-04
   0.68450   0.81596823E-04
   0.68550   0.81493847E-04
   0.68650   0.81973012E-04
   0.68750   0.86469874E-04
   0.68850   0.97112657E-04
   0.68950   0.11218121E-03
   0.69050   0.13014663E-03
   0.69150   0.14967019E-03
   0.69250   0.16939123E-03
   0.69350   0.18797757E-03
   0.69450   0.20421774E-03
   0.69550   0.21710343E-03
   0.69650   0.22588688E-03
   0.69750   0.23011069E-03
   0.69850   0.22961336E-03
   0.69950   0.22451622E-03
   0.70050   0.21519727E-03
   0.70150   0.20225432E-03
   0.70250   0.18645320E-03
   0.70350   0.16864366E-03
   0.70450   0.14963190E-03
   0.70550   0.13100677E-03
   0.70650   0.11864113E-03
   0.70750   0.11525871E-03
   0.70850   0.11920530E-03
   0.70950   0.12828651E-03
   0.71050   0.14027188E-03
   0.71150   0.15307769E-03
   0.71250   0.16494059E-03
   0.71350   0.17454675E-03
   0.71450   0.18110000E-03
   0.71550   0.18432875E-03
   0.71650   0.18444016E-03
   0.71750   0.18203494E-03
   0.71850   0.17799652E-03
   0.71950   0.17336856E-03
   0.72050   0.16923262E-03
   0.72150   0.16659619E-03
   0.72250   0.16629891E-03
   0.72350   0.16894302E-03
   0.72450   0.17485168E-03
   0.72550   0.18405712E-03
   0.72650   0.19631928E-03
   0.72750   0.21117402E-03
   0.72850   0.22801224E-03
   0.72950   0.24619731E-03
   0.73050   0.26525493E-03
   0.73150   0.28522155E-03
   0.73250   0.30626444E-03
   0.73350   0.32427159E-03
   0.73450   0.33713726E-03
   0.73550   0.34632179E-03
   0.73650   0.35305828E-03
   0.73750   0.35836294E-03
   0.73850   0.36317031E-03
   0.73950   0.36834425E-03
   0.74050   0.37464616E-03
   0.74150   0.38269541E-03
   0.74250   0.39293675E-03
   0.74350   0.40562247E-03
   0.74450   0.42081115E-03
   0.74550   0.43838381E-03
   0.74650   0.45807476E-03
   0.74750   0.47951372E-03
   0.74850   0.50227449E-03
   0.74950   0.52592519E-03
   0.75050   0.55007573E-03
   0.75150   0.57441794E-03
   0.75250   0.59875601E-03
   0.75350   0.62302430E-03
   0.75450   0.64729393E-03
   0.75550   0.67176664E-03
   0.75650   0.69675961E-03
   0.75750   0.72268298E-03
   0.75850   0.75001281E-03
   0.75950   0.77926402E-03
   0.76050   0.81096450E-03
   0.76150   0.84563467E-03
   0.76250   0.88377332E-03
   0.76350   0.92585111E-03
   0.76450   0.97231258E-03
   0.76550   0.10235852E-02
   0.76650   0.10800951E-02
   0.76750   0.11422875E-02
   0.76850   0.12106497E-02
   0.76950   0.12857353E-02
   0.77050   0.13681862E-02
   0.77150   0.14587538E-02
   0.77250   0.15583158E-02
   0.77350   0.16678909E-02
   0.77450   0.17886539E-02
   0.77550   0.19219563E-02
   0.77650   0.20693680E-02
   0.77750   0.22327688E-02
   0.77850   0.24145807E-02
   0.77950   0.26184116E-02
   0.78050   0.28511870E-02
   0.78150   0.31310662E-02
   0.78250   0.34905677E-02
   0.78350   0.39069476E-02
   0.78450   0.43609324E-02
   0.78550   0.48634494E-02
   0.78650   0.54275789E-02
   0.78750   0.60651023E-02
   0.78850   0.67857965E-02
   0.78950   0.75968564E-02
   0.79050   0.85030962E-02
   0.79150   0.95085902E-02
   0.79250   0.10619796E-01
   0.79350   0.11849261E-01
   0.79450   0.13218358E-01
   0.79550   0.14757906E-01
   0.79650   0.16507005E-01
   0.79750   0.18512229E-01
   0.79850   0.20831807E-01
   0.79950   0.23570918E-01
   0.80050   0.28079109E-01
   0.80150   0.31165322E-01
   0.80250   0.34574933E-01
   0.80350   0.39658077E-01
   0.80450   0.46081584E-01
   0.80550   0.54838378E-01
   0.80650   0.69418445E-01
   0.80750   0.10350065E+00
   0.80850   0.15468094E+00
   0.80950   0.13600634E+00
   0.81050   0.11287845E+00
   0.81150   0.12338788E+00
   0.81250   0.15139447E+00
   0.81350   0.19159186E+00
   0.81450   0.22549365E+00
   0.81550   0.25279263E+00
   0.81650   0.26564765E+00
   0.81750   0.31453416E+00
   0.81850   0.33905101E+00
   0.81950   0.51404434E+00
   0.82050   0.57463533E+00
   0.82150   0.60858512E+00
   0.82250   0.10134784E+01
   0.82350   0.10819929E+01
   0.82450   0.11433698E+01
   0.82550   0.66412330E+00
   0.82650   0.54922873E+00
   0.82750   0.34407771E+00
   0.82850   0.29945290E+00
   0.82950   0.27444082E+00
   0.83050   0.23063582E+00
   0.83150   0.23150954E+00
   0.83250   0.24232940E+00
   0.83350   0.21940731E+00
   0.83450   0.20967908E+00
   0.83550   0.22000434E+00
   0.83650   0.22732221E+00
   0.83750   0.20888688E+00
   0.83850   0.17299168E+00
   0.83950   0.15765370E+00
   0.84050   0.16094992E+00
   0.84150   0.16425455E+00
   0.84250   0.15753670E+00
   0.84350   0.13747333E+00
   0.84450   0.11190818E+00
   0.84550   0.10454930E+00
   0.84650   0.13515641E+00
   0.84750   0.18163335E+00
   0.84850   0.21620145E+00
   0.84950   0.23711686E+00
   0.85050   0.25042865E+00
   0.85150   0.25968698E+00
   0.85250   0.26577398E+00
   0.85350   0.26814362E+00
   0.85450   0.26590651E+00
   0.85550   0.25891438E+00
   0.85650   0.24883179E+00
   0.85750   0.23941006E+00
   0.85850   0.23445079E+00
   0.85950   0.23397703E+00
   0.86050   0.23360749E+00
   0.86150   0.23029602E+00
   0.86250   0.22612207E+00
   0.86350   0.22428438E+00
   0.86450   0.22512521E+00
   0.86550   0.22582895E+00
   0.86650   0.22160436E+00
   0.86750   0.20830771E+00
   0.86850   0.18621358E+00
   0.86950   0.16063295E+00
   0.87050   0.13755791E+00
   0.87150   0.11976793E+00
   0.87250   0.10689978E+00
   0.87350   0.97583756E-01
   0.87450   0.91220446E-01
   0.87550   0.88400058E-01
   0.87650   0.90285100E-01
   0.87750   0.97701296E-01
   0.87850   0.11023559E+00
   0.87950   0.12575027E+00
   0.88050   0.14111966E+00
   0.88150   0.15391387E+00
   0.88250   0.16339351E+00
   0.88350   0.17014502E+00
   0.88450   0.17522411E+00
   0.88550   0.17958434E+00
   0.88650   0.18387057E+00
   0.88750   0.18839319E+00
   0.88850   0.19315025E+00
   0.88950   0.19785903E+00
   0.89050   0.20201431E+00
   0.89150   0.20500542E+00
   0.89250   0.20629448E+00
   0.89350   0.20559812E+00
   0.89450   0.20297697E+00
   0.89550   0.19877630E+00
   0.89650   0.19345978E+00
   0.89750   0.18744276E+00
   0.89850   0.18101646E+00
   0.89950   0.17440018E+00
   0.90050   0.16795881E+00
   0.90150   0.16230561E+00
   0.90250   0.15766667E+00
   0.90350   0.15409978E+00
   0.90450   0.15178905E+00
   0.90550   0.15115313E+00
   0.90650   0.15243132E+00
   0.90750   0.15555535E+00
   0.90850   0.16013576E+00
   0.90950   0.16552246E+00
   0.91050   0.17092669E+00
   0.91150   0.17558493E+00
   0.91250   0.17893459E+00
   0.91350   0.18076383E+00
   0.91450   0.18129560E+00
   0.91550   0.18117177E+00
   0.91650   0.18132138E+00
   0.91750   0.18273167E+00
   0.91850   0.18618867E+00
   0.91950   0.19208504E+00
   0.92050   0.20037024E+00
   0.92150   0.21064702E+00
   0.92250   0.22235298E+00
   0.92350   0.23494653E+00
   0.92450   0.24804099E+00
   0.92550   0.26146472E+00
   0.92650   0.27525270E+00
   0.92750   0.28959259E+00
   0.92850   0.30475938E+00
   0.92950   0.32106861E+00
   0.93050   0.33886382E+00
   0.93150   0.35853112E+00
   0.93250   0.38052180E+00
   0.93350   0.40536615E+00
   0.93450   0.43367517E+00
   0.93550   0.46615043E+00
   0.93650   0.50364101E+00
   0.93750   0.54728198E+00
   0.93850   0.59866399E+00
   0.93950   0.65976936E+00
   0.94050   0.73214465E+00
   0.94150   0.81505829E+00
   0.94250   0.90465409E+00
   0.94350   0.10012759E+01
   0.94450   0.11245809E+01
   0.94550   0.12542812E+01
   0.94650   0.13679497E+01
   0.94750   0.15145166E+01
   0.94850   0.16907791E+01
   0.94950   0.18326576E+01
   0.95050   0.19338965E+01
   0.95150   0.20562978E+01
   0.95250   0.22060025E+01
   0.95350   0.23288007E+01
   0.95450   0.24419222E+01
   0.95550   0.25906682E+01
   0.95650   0.27589414E+01
   0.95750   0.29143245E+01
   0.95850   0.30572920E+01
   0.95950   0.31633737E+01
   0.96050   0.32393138E+01
   0.96150   0.32862067E+01
   0.96250   0.32119913E+01
   0.96350   0.31323862E+01
   0.96450   0.31075766E+01
   0.96550   0.31428285E+01
   0.96650   0.31660163E+01
   0.96750   0.31296406E+01
   0.96850   0.31211252E+01
   0.96950   0.31550360E+01
   0.97050   0.31631944E+01
   0.97150   0.31233339E+01
   0.97250   0.30702105E+01
   0.97350   0.30207262E+01
   0.97450   0.29841554E+01
   0.97550   0.29619315E+01
   0.97650   0.29449494E+01
   0.97750   0.29250214E+01
   0.97850   0.29104300E+01
   0.97950   0.29044464E+01
   0.98050   0.28955832E+01
   0.98150   0.28672900E+01
   0.98250   0.28240094E+01
   0.98350   0.27861886E+01
   0.98450   0.27636266E+01
   0.98550   0.27554216E+01
   0.98650   0.27603741E+01
   0.98750   0.27799485E+01
   0.98850   0.28168976E+01
   0.98950   0.28634398E+01
   0.99050   0.28951924E+01
   0.99150   0.29171338E+01
   0.99250   0.29453340E+01
   0.99350   0.29878318E+01
   0.99450   0.30431862E+01
   0.99550   0.30985887E+01
   0.99650   0.31471281E+01
   0.99750   0.31877906E+01
   0.99850   0.32180459E+01
   0.99950   0.32334783E+01
