# Transmission, k-averaged
# Date: 2021-05-13
#   E [eV]           T [G0]
   0.00050   0.93003511E-02
   0.00150   0.39561696E-01
   0.00250   0.76227799E-01
   0.00350   0.71478203E-01
   0.00450   0.18188408E-01
   0.00550   0.18203549E-01
   0.00650   0.31529337E-01
   0.00750   0.16227286E-01
   0.00850   0.18491521E-01
   0.00950   0.58116049E-01
   0.01050   0.12287555E-01
   0.01150   0.26324183E-01
   0.01250   0.62243931E-01
   0.01350   0.13293732E-01
   0.01450   0.13800602E-01
   0.01550   0.56121878E-01
   0.01650   0.33542857E-01
   0.01750   0.11115624E-01
   0.01850   0.10809451E-01
   0.01950   0.28458439E-01
   0.02050   0.68090312E-01
   0.02150   0.14062312E-01
   0.02250   0.76483558E-02
   0.02350   0.88227931E-02
   0.02450   0.24047032E-01
   0.02550   0.76028734E-01
   0.02650   0.12591911E-01
   0.02750   0.55702631E-02
   0.02850   0.48773331E-02
   0.02950   0.81192777E-02
   0.03050   0.40971704E-01
   0.03150   0.27729204E-01
   0.03250   0.55349506E-02
   0.03350   0.30351037E-02
   0.03450   0.30600897E-02
   0.03550   0.58234162E-02
   0.03650   0.33757210E-01
   0.03750   0.30604444E-01
   0.03850   0.73730862E-02
   0.03950   0.48728823E-02
   0.04050   0.56184297E-02
   0.04150   0.10611654E-01
   0.04250   0.36423698E-01
   0.04350   0.63457541E-01
   0.04450   0.21476598E-01
   0.04550   0.12347125E-01
   0.04650   0.10763411E-01
   0.04750   0.11598495E-01
   0.04850   0.13484554E-01
   0.04950   0.14713193E-01
   0.05050   0.13721627E-01
   0.05150   0.11349708E-01
   0.05250   0.91509065E-02
   0.05350   0.76105893E-02
   0.05450   0.66230483E-02
   0.05550   0.59919194E-02
   0.05650   0.55590179E-02
   0.05750   0.52152369E-02
   0.05850   0.48965700E-02
   0.05950   0.45789261E-02
   0.06050   0.42668562E-02
   0.06150   0.39776992E-02
   0.06250   0.37286095E-02
   0.06350   0.35307126E-02
   0.06450   0.33888435E-02
   0.06550   0.33033551E-02
   0.06650   0.32715788E-02
   0.06750   0.32879962E-02
   0.06850   0.33430886E-02
   0.06950   0.34215306E-02
   0.07050   0.35013978E-02
   0.07150   0.35570478E-02
   0.07250   0.35673522E-02
   0.07350   0.35262418E-02
   0.07450   0.34477815E-02
   0.07550   0.33609639E-02
   0.07650   0.32985175E-02
   0.07750   0.32875014E-02
   0.07850   0.33442688E-02
   0.07950   0.34709866E-02
   0.08050   0.36517640E-02
   0.08150   0.38542813E-02
   0.08250   0.40495172E-02
   0.08350   0.42464985E-02
   0.08450   0.45092069E-02
   0.08550   0.49387654E-02
   0.08650   0.56462036E-02
   0.08750   0.67271204E-02
   0.08850   0.82082264E-02
   0.08950   0.99515021E-02
   0.09050   0.11617947E-01
   0.09150   0.12790545E-01
   0.09250   0.13060463E-01
   0.09350   0.12871830E-01
   0.09450   0.12787274E-01
   0.09550   0.12776515E-01
   0.09650   0.12695782E-01
   0.09750   0.12441572E-01
   0.09850   0.11996906E-01
   0.09950   0.11416297E-01
   0.10050   0.10776695E-01
   0.10150   0.10137369E-01
   0.10250   0.95270611E-02
   0.10350   0.89502558E-02
   0.10450   0.83993468E-02
   0.10550   0.78650424E-02
   0.10650   0.73423637E-02
   0.10750   0.68321922E-02
   0.10850   0.63396660E-02
   0.10950   0.58713006E-02
   0.11050   0.54324791E-02
   0.11150   0.50261435E-02
   0.11250   0.46526850E-02
   0.11350   0.43105986E-02
   0.11450   0.39973981E-02
   0.11550   0.37104429E-02
   0.11650   0.34474833E-02
   0.11750   0.32068838E-02
   0.11850   0.29875853E-02
   0.11950   0.27889027E-02
   0.12050   0.26102765E-02
   0.12150   0.24510636E-02
   0.12250   0.23104160E-02
   0.12350   0.21872476E-02
   0.12450   0.20802736E-02
   0.12550   0.19880887E-02
   0.12650   0.19092605E-02
   0.12750   0.18424124E-02
   0.12850   0.17862875E-02
   0.12950   0.17397864E-02
   0.13050   0.17019770E-02
   0.13150   0.16720821E-02
   0.13250   0.16494498E-02
   0.13350   0.16335148E-02
   0.13450   0.16237579E-02
   0.13550   0.16196722E-02
   0.13650   0.16207369E-02
   0.13750   0.16264052E-02
   0.13850   0.16361040E-02
   0.13950   0.16492452E-02
   0.14050   0.16652467E-02
   0.14150   0.16835583E-02
   0.14250   0.17036872E-02
   0.14350   0.17252198E-02
   0.14450   0.17478347E-02
   0.14550   0.17713048E-02
   0.14650   0.17954868E-02
   0.14750   0.18203030E-02
   0.14850   0.18457157E-02
   0.14950   0.18716995E-02
   0.15050   0.18982176E-02
   0.15150   0.19252035E-02
   0.15250   0.19525508E-02
   0.15350   0.19801145E-02
   0.15450   0.20077191E-02
   0.15550   0.20351759E-02
   0.15650   0.20623037E-02
   0.15750   0.20889489E-02
   0.15850   0.21150045E-02
   0.15950   0.21404210E-02
   0.16050   0.21652090E-02
   0.16150   0.21894325E-02
   0.16250   0.22131926E-02
   0.16350   0.22366052E-02
   0.16450   0.22597718E-02
   0.16550   0.22827515E-02
   0.16650   0.23055270E-02
   0.16750   0.23279698E-02
   0.16850   0.23497934E-02
   0.16950   0.23704786E-02
   0.17050   0.23891211E-02
   0.17150   0.24040865E-02
   0.17250   0.24121043E-02
   0.17350   0.24055198E-02
   0.17450   0.23623488E-02
   0.17550   0.22188020E-02
   0.17650   0.19726977E-02
   0.17750   0.17653883E-02
   0.17850   0.16108532E-02
   0.17950   0.14911022E-02
   0.18050   0.13945929E-02
   0.18150   0.13145147E-02
   0.18250   0.12466171E-02
   0.18350   0.11880872E-02
   0.18450   0.11369702E-02
   0.18550   0.10918551E-02
   0.18650   0.10516908E-02
   0.18750   0.10156757E-02
   0.18850   0.98318676E-03
   0.18950   0.95373136E-03
   0.19050   0.92691591E-03
   0.19150   0.90242206E-03
   0.19250   0.87998959E-03
   0.19350   0.85940404E-03
   0.19450   0.84048638E-03
   0.19550   0.82308549E-03
   0.19650   0.80707215E-03
   0.19750   0.79233403E-03
   0.19850   0.77877211E-03
   0.19950   0.76629780E-03
   0.20050   0.75483066E-03
   0.20150   0.74429717E-03
   0.20250   0.73462958E-03
   0.20350   0.72576560E-03
   0.20450   0.71764865E-03
   0.20550   0.71022793E-03
   0.20650   0.70346007E-03
   0.20750   0.69731078E-03
   0.20850   0.69175917E-03
   0.20950   0.68680441E-03
   0.21050   0.68248110E-03
   0.21150   0.67889073E-03
   0.21250   0.67627529E-03
   0.21350   0.67520159E-03
   0.21450   0.67707233E-03
   0.21550   0.68571162E-03
   0.21650   0.71221869E-03
   0.21750   0.76955487E-03
   0.21850   0.78784290E-03
   0.21950   0.77418546E-03
   0.22050   0.76773309E-03
   0.22150   0.76911692E-03
   0.22250   0.77553897E-03
   0.22350   0.78542571E-03
   0.22450   0.79809019E-03
   0.22550   0.81333541E-03
   0.22650   0.83125575E-03
   0.22750   0.85215829E-03
   0.22850   0.87655056E-03
   0.22950   0.90517628E-03
   0.23050   0.93909563E-03
   0.23150   0.97979931E-03
   0.23250   0.10291928E-02
   0.23350   0.10878807E-02
   0.23450   0.11389012E-02
   0.23550   0.11282670E-02
   0.23650   0.10806967E-02
   0.23750   0.10309402E-02
   0.23850   0.98523335E-03
   0.23950   0.94396994E-03
   0.24050   0.90665650E-03
   0.24150   0.87273517E-03
   0.24250   0.84172498E-03
   0.24350   0.81323268E-03
   0.24450   0.78693958E-03
   0.24550   0.76258538E-03
   0.24650   0.73995569E-03
   0.24750   0.71887160E-03
   0.24850   0.69918233E-03
   0.24950   0.68075949E-03
   0.25050   0.66349254E-03
   0.25150   0.64728566E-03
   0.25250   0.63205539E-03
   0.25350   0.61772816E-03
   0.25450   0.60423918E-03
   0.25550   0.59153105E-03
   0.25650   0.57955255E-03
   0.25750   0.56825823E-03
   0.25850   0.55760745E-03
   0.25950   0.54756377E-03
   0.26050   0.53809461E-03
   0.26150   0.52917073E-03
   0.26250   0.52076590E-03
   0.26350   0.51285658E-03
   0.26450   0.50542143E-03
   0.26550   0.49844140E-03
   0.26650   0.49189921E-03
   0.26750   0.48577928E-03
   0.26850   0.48006760E-03
   0.26950   0.47475140E-03
   0.27050   0.46981929E-03
   0.27150   0.46526105E-03
   0.27250   0.46106748E-03
   0.27350   0.45723052E-03
   0.27450   0.45374304E-03
   0.27550   0.45059892E-03
   0.27650   0.44779308E-03
   0.27750   0.44532132E-03
   0.27850   0.44318044E-03
   0.27950   0.44136817E-03
   0.28050   0.43988315E-03
   0.28150   0.43872499E-03
   0.28250   0.43789405E-03
   0.28350   0.43739154E-03
   0.28450   0.43721934E-03
   0.28550   0.43737976E-03
   0.28650   0.43787534E-03
   0.28750   0.43870840E-03
   0.28850   0.43988010E-03
   0.28950   0.44138925E-03
   0.29050   0.44322963E-03
   0.29150   0.44538538E-03
   0.29250   0.44782154E-03
   0.29350   0.45046423E-03
   0.29450   0.45315461E-03
   0.29550   0.45553088E-03
   0.29650   0.45667458E-03
   0.29750   0.45382607E-03
   0.29850   0.43736945E-03
   0.29950   0.39354386E-03
   0.30050   0.34702945E-03
   0.30150   0.31131209E-03
   0.30250   0.28366907E-03
   0.30350   0.26146369E-03
   0.30450   0.24307346E-03
   0.30550   0.22747985E-03
   0.30650   0.21400840E-03
   0.30750   0.20218988E-03
   0.30850   0.19168424E-03
   0.30950   0.18223647E-03
   0.31050   0.17364995E-03
   0.31150   0.16576955E-03
   0.31250   0.15847060E-03
   0.31350   0.15165153E-03
   0.31450   0.14522889E-03
   0.31550   0.13913403E-03
   0.31650   0.13331095E-03
   0.31750   0.12771497E-03
   0.31850   0.12231203E-03
   0.31950   0.11707860E-03
   0.32050   0.11200189E-03
   0.32150   0.10708040E-03
   0.32250   0.10232463E-03
   0.32350   0.97757700E-04
   0.32450   0.93415896E-04
   0.32550   0.89348694E-04
   0.32650   0.85618100E-04
   0.32750   0.82296960E-04
   0.32850   0.79465950E-04
   0.32950   0.77208970E-04
   0.33050   0.75606942E-04
   0.33150   0.74730000E-04
   0.33250   0.74628588E-04
   0.33350   0.75324213E-04
   0.33450   0.76800927E-04
   0.33550   0.78998797E-04
   0.33650   0.81810787E-04
   0.33750   0.85083964E-04
   0.33850   0.88625631E-04
   0.33950   0.92214163E-04
   0.34050   0.95613432E-04
   0.34150   0.98589284E-04
   0.34250   0.10092583E-03
   0.34350   0.10243982E-03
   0.34450   0.10299114E-03
   0.34550   0.10248899E-03
   0.34650   0.10089321E-03
   0.34750   0.98211523E-04
   0.34850   0.94493764E-04
   0.34950   0.89824141E-04
   0.35050   0.84312924E-04
   0.35150   0.78088589E-04
   0.35250   0.71291084E-04
   0.35350   0.64066822E-04
   0.35450   0.56565565E-04
   0.35550   0.48939371E-04
   0.35650   0.41343505E-04
   0.35750   0.33939417E-04
   0.35850   0.26899619E-04
   0.35950   0.20413883E-04
   0.36050   0.14692526E-04
   0.36150   0.99421841E-05
   0.36250   0.62576109E-05
   0.36350   0.40908199E-05
   0.36450   0.38691073E-05
   0.36550   0.49293844E-05
   0.36650   0.68261020E-05
   0.36750   0.93690851E-05
   0.36850   0.12486771E-04
   0.36950   0.16168766E-04
   0.37050   0.20442954E-04
   0.37150   0.25366777E-04
   0.37250   0.31025415E-04
   0.37350   0.37534537E-04
   0.37450   0.45047240E-04
   0.37550   0.53766369E-04
   0.37650   0.63965104E-04
   0.37750   0.76021461E-04
   0.37850   0.90476846E-04
   0.37950   0.10812949E-03
   0.38050   0.13008728E-03
   0.38150   0.15651459E-03
   0.38250   0.17832904E-03
   0.38350   0.18876333E-03
   0.38450   0.19522403E-03
   0.38550   0.20060121E-03
   0.38650   0.20551230E-03
   0.38750   0.21007672E-03
   0.38850   0.21428504E-03
   0.38950   0.21808998E-03
   0.39050   0.22143430E-03
   0.39150   0.22426204E-03
   0.39250   0.22652438E-03
   0.39350   0.22818387E-03
   0.39450   0.22921794E-03
   0.39550   0.22962208E-03
   0.39650   0.22941214E-03
   0.39750   0.22862593E-03
   0.39850   0.22732349E-03
   0.39950   0.22558581E-03
   0.40050   0.22351208E-03
   0.40150   0.22121506E-03
   0.40250   0.21881521E-03
   0.40350   0.21643382E-03
   0.40450   0.21418562E-03
   0.40550   0.21217192E-03
   0.40650   0.21047430E-03
   0.40750   0.20914976E-03
   0.40850   0.20822621E-03
   0.40950   0.20769669E-03
   0.41050   0.20750440E-03
   0.41150   0.20749297E-03
   0.41250   0.20721066E-03
   0.41350   0.20501942E-03
   0.41450   0.19623627E-03
   0.41550   0.18315490E-03
   0.41650   0.17243848E-03
   0.41750   0.16423484E-03
   0.41850   0.15778538E-03
   0.41950   0.15255385E-03
   0.42050   0.14818573E-03
   0.42150   0.14443477E-03
   0.42250   0.14111743E-03
   0.42350   0.13808468E-03
   0.42450   0.13520195E-03
   0.42550   0.13233203E-03
   0.42650   0.12931621E-03
   0.42750   0.12594895E-03
   0.42850   0.12193801E-03
   0.42950   0.11683662E-03
   0.43050   0.10992381E-03
   0.43150   0.10000807E-03
   0.43250   0.85248859E-04
   0.43350   0.64077722E-04
   0.43450   0.42810741E-04
   0.43550   0.50612256E-04
   0.43650   0.92619950E-04
   0.43750   0.12583913E-03
   0.43850   0.14132258E-03
   0.43950   0.14705739E-03
   0.44050   0.14806005E-03
   0.44150   0.14640563E-03
   0.44250   0.14282965E-03
   0.44350   0.13747491E-03
   0.44450   0.13017360E-03
   0.44550   0.12056489E-03
   0.44650   0.10852161E-03
   0.44750   0.98249286E-04
   0.44850   0.14584025E-03
   0.44950   0.23698286E-03
   0.45050   0.30823288E-03
   0.45150   0.35948629E-03
   0.45250   0.42818440E-03
   0.45350   0.51037531E-03
   0.45450   0.58383943E-03
   0.45550   0.62342436E-03
   0.45650   0.61640429E-03
   0.45750   0.57563814E-03
   0.45850   0.56197710E-03
   0.45950   0.74095430E-03
   0.46050   0.18651424E-01
   0.46150   0.64564571E-02
   0.46250   0.25401160E-02
   0.46350   0.12121019E-02
   0.46450   0.11855912E-02
   0.46550   0.11944073E-02
   0.46650   0.87440782E-03
   0.46750   0.59028622E-03
   0.46850   0.41268617E-03
   0.46950   0.31714249E-03
   0.47050   0.27097249E-03
   0.47150   0.25311337E-03
   0.47250   0.25036582E-03
   0.47350   0.25474266E-03
   0.47450   0.26212697E-03
   0.47550   0.27130949E-03
   0.47650   0.28297384E-03
   0.47750   0.29862730E-03
   0.47850   0.31995677E-03
   0.47950   0.34861828E-03
   0.48050   0.38598859E-03
   0.48150   0.43260958E-03
   0.48250   0.48738127E-03
   0.48350   0.54646621E-03
   0.48450   0.60158753E-03
   0.48550   0.63848193E-03
   0.48650   0.64206438E-03
   0.48750   0.61718730E-03
   0.48850   0.58818352E-03
   0.48950   0.54638158E-03
   0.49050   0.47909433E-03
   0.49150   0.40925114E-03
   0.49250   0.35604520E-03
   0.49350   0.32146610E-03
   0.49450   0.30054088E-03
   0.49550   0.28804666E-03
   0.49650   0.28021180E-03
   0.49750   0.27472214E-03
   0.49850   0.27148175E-03
   0.49950   0.27198193E-03
   0.50050   0.27388212E-03
   0.50150   0.27564308E-03
   0.50250   0.27690441E-03
   0.50350   0.27763029E-03
   0.50450   0.27788704E-03
   0.50550   0.27778122E-03
   0.50650   0.27743762E-03
   0.50750   0.27698945E-03
   0.50850   0.27657364E-03
   0.50950   0.27632917E-03
   0.51050   0.27639829E-03
   0.51150   0.27693139E-03
   0.51250   0.27809531E-03
   0.51350   0.28008720E-03
   0.51450   0.28315544E-03
   0.51550   0.28763269E-03
   0.51650   0.29399004E-03
   0.51750   0.30292798E-03
   0.51850   0.31551311E-03
   0.51950   0.33313956E-03
   0.52050   0.35424999E-03
   0.52150   0.36094635E-03
   0.52250   0.35085043E-03
   0.52350   0.33796061E-03
   0.52450   0.32609061E-03
   0.52550   0.31587033E-03
   0.52650   0.30733261E-03
   0.52750   0.30039973E-03
   0.52850   0.29497180E-03
   0.52950   0.29090233E-03
   0.53050   0.28785612E-03
   0.53150   0.28476596E-03
   0.53250   0.27746792E-03
   0.53350   0.25569191E-03
   0.53450   0.22830823E-03
   0.53550   0.20818356E-03
   0.53650   0.19494911E-03
   0.53750   0.18728443E-03
   0.53850   0.18454758E-03
   0.53950   0.18658511E-03
   0.54050   0.19353449E-03
   0.54150   0.20563952E-03
   0.54250   0.22299652E-03
   0.54350   0.24516872E-03
   0.54450   0.27071181E-03
   0.54550   0.29691527E-03
   0.54650   0.32031673E-03
   0.54750   0.33806660E-03
   0.54850   0.34882483E-03
   0.54950   0.35206837E-03
   0.55050   0.34739415E-03
   0.55150   0.33520797E-03
   0.55250   0.31726697E-03
   0.55350   0.29604236E-03
   0.55450   0.27378197E-03
   0.55550   0.25205137E-03
   0.55650   0.23173410E-03
   0.55750   0.21321690E-03
   0.55850   0.19658197E-03
   0.55950   0.18174808E-03
   0.56050   0.16855876E-03
   0.56150   0.15683247E-03
   0.56250   0.14638861E-03
   0.56350   0.13705993E-03
   0.56450   0.12869717E-03
   0.56550   0.12116988E-03
   0.56650   0.11436531E-03
   0.56750   0.10818653E-03
   0.56850   0.10255036E-03
   0.56950   0.97385280E-04
   0.57050   0.92629693E-04
   0.57150   0.88230321E-04
   0.57250   0.84140956E-04
   0.57350   0.80321530E-04
   0.57450   0.76737444E-04
   0.57550   0.73359282E-04
   0.57650   0.70162969E-04
   0.57750   0.67130459E-04
   0.57850   0.64251290E-04
   0.57950   0.61525410E-04
   0.58050   0.58968057E-04
   0.58150   0.56618064E-04
   0.58250   0.54551881E-04
   0.58350   0.52907453E-04
   0.58450   0.51924828E-04
   0.58550   0.52015181E-04
   0.58650   0.53875330E-04
   0.58750   0.58665733E-04
   0.58850   0.68239104E-04
   0.58950   0.85261010E-04
   0.59050   0.11264034E-03
   0.59150   0.15111899E-03
   0.59250   0.19509083E-03
   0.59350   0.23225976E-03
   0.59450   0.25265248E-03
   0.59550   0.25641665E-03
   0.59650   0.25005327E-03
   0.59750   0.23974531E-03
   0.59850   0.22911541E-03
   0.59950   0.21978431E-03
   0.60050   0.21230594E-03
   0.60150   0.20676857E-03
   0.60250   0.20309525E-03
   0.60350   0.20117748E-03
   0.60450   0.20093069E-03
   0.60550   0.20231647E-03
   0.60650   0.20535263E-03
   0.60750   0.21012068E-03
   0.60850   0.21677605E-03
   0.60950   0.22556422E-03
   0.61050   0.23684716E-03
   0.61150   0.25114586E-03
   0.61250   0.26920886E-03
   0.61350   0.29212274E-03
   0.61450   0.32148365E-03
   0.61550   0.35959869E-03
   0.61650   0.40912870E-03
   0.61750   0.46625745E-03
   0.61850   0.48883806E-03
   0.61950   0.46508724E-03
   0.62050   0.44592941E-03
   0.62150   0.47952356E-03
   0.62250   0.35470663E-03
   0.62350   0.25370624E-03
   0.62450   0.21473860E-03
   0.62550   0.20248833E-03
   0.62650   0.19184340E-03
   0.62750   0.18045431E-03
   0.62850   0.16863675E-03
   0.62950   0.15682446E-03
   0.63050   0.14530159E-03
   0.63150   0.13325067E-03
   0.63250   0.12983702E-03
   0.63350   0.18789557E-03
   0.63450   0.13066581E-03
   0.63550   0.11665105E-03
   0.63650   0.13783887E-03
   0.63750   0.22765975E-03
   0.63850   0.10309727E-01
   0.63950   0.10415496E-01
   0.64050   0.18654374E-01
   0.64150   0.10389261E-01
   0.64250   0.12279565E-01
   0.64350   0.90974458E-02
   0.64450   0.58504213E-02
   0.64550   0.40585706E-02
   0.64650   0.27675251E-02
   0.64750   0.20873968E-02
   0.64850   0.17242889E-02
   0.64950   0.15222227E-02
   0.65050   0.14030811E-02
   0.65150   0.13229559E-02
   0.65250   0.12684702E-02
   0.65350   0.12296877E-02
   0.65450   0.11977263E-02
   0.65550   0.11700832E-02
   0.65650   0.11480905E-02
   0.65750   0.11333305E-02
   0.65850   0.11269122E-02
   0.65950   0.11292881E-02
   0.66050   0.11396934E-02
   0.66150   0.11561314E-02
   0.66250   0.11761256E-02
   0.66350   0.11974864E-02
   0.66450   0.12184964E-02
   0.66550   0.12376619E-02
   0.66650   0.12535320E-02
   0.66750   0.12648475E-02
   0.66850   0.12708679E-02
   0.66950   0.12715565E-02
   0.67050   0.12674564E-02
   0.67150   0.12593544E-02
   0.67250   0.12479577E-02
   0.67350   0.12337503E-02
   0.67450   0.12170505E-02
   0.67550   0.11981827E-02
   0.67650   0.11776371E-02
   0.67750   0.11561299E-02
   0.67850   0.11345422E-02
   0.67950   0.11137859E-02
   0.68050   0.10946634E-02
   0.68150   0.10777737E-02
   0.68250   0.10634685E-02
   0.68350   0.10517823E-02
   0.68450   0.10420468E-02
   0.68550   0.10309223E-02
   0.68650   0.10022024E-02
   0.68750   0.90647209E-03
   0.68850   0.77225611E-03
   0.68950   0.66333136E-03
   0.69050   0.57992828E-03
   0.69150   0.51454233E-03
   0.69250   0.46194933E-03
   0.69350   0.41880368E-03
   0.69450   0.38292198E-03
   0.69550   0.35282984E-03
   0.69650   0.32749178E-03
   0.69750   0.30615187E-03
   0.69850   0.28824428E-03
   0.69950   0.27334932E-03
   0.70050   0.26118135E-03
   0.70150   0.25160410E-03
   0.70250   0.24467779E-03
   0.70350   0.24074419E-03
   0.70450   0.24031673E-03
   0.70550   0.24113334E-03
   0.70650   0.23696997E-03
   0.70750   0.23041939E-03
   0.70850   0.22382880E-03
   0.70950   0.21767667E-03
   0.71050   0.21200771E-03
   0.71150   0.20676741E-03
   0.71250   0.20188138E-03
   0.71350   0.19727919E-03
   0.71450   0.19290282E-03
   0.71550   0.18870906E-03
   0.71650   0.18466888E-03
   0.71750   0.18076510E-03
   0.71850   0.17698944E-03
   0.71950   0.17333969E-03
   0.72050   0.16981771E-03
   0.72150   0.16642838E-03
   0.72250   0.16317973E-03
   0.72350   0.16008384E-03
   0.72450   0.15715834E-03
   0.72550   0.15442848E-03
   0.72650   0.15192987E-03
   0.72750   0.14971323E-03
   0.72850   0.14785412E-03
   0.72950   0.14647722E-03
   0.73050   0.14582661E-03
   0.73150   0.14649218E-03
   0.73250   0.14953528E-03
   0.73350   0.15336448E-03
   0.73450   0.15606311E-03
   0.73550   0.15807827E-03
   0.73650   0.15988073E-03
   0.73750   0.16176669E-03
   0.73850   0.16394535E-03
   0.73950   0.16658552E-03
   0.74050   0.16983917E-03
   0.74150   0.17385581E-03
   0.74250   0.17879406E-03
   0.74350   0.18483412E-03
   0.74450   0.19219457E-03
   0.74550   0.20115795E-03
   0.74650   0.21211416E-03
   0.74750   0.22563976E-03
   0.74850   0.24265669E-03
   0.74950   0.26478877E-03
   0.75050   0.29530688E-03
   0.75150   0.34262150E-03
   0.75250   0.45215539E-03
   0.75350   0.12402560E-02
   0.75450   0.34637263E-03
   0.75550   0.41962491E-03
   0.75650   0.68381877E-03
   0.75750   0.13069093E-02
   0.75850   0.21676223E-02
   0.75950   0.32054998E-02
   0.76050   0.39101816E-02
   0.76150   0.13195160E-02
   0.76250   0.11199079E-02
   0.76350   0.53215224E-01
   0.76450   0.92597105E-01
   0.76550   0.49638569E-01
   0.76650   0.49300510E-01
   0.76750   0.18297724E-01
   0.76850   0.19749418E-01
   0.76950   0.24518982E-01
   0.77050   0.21169247E-01
   0.77150   0.18298382E-01
   0.77250   0.15749980E-01
   0.77350   0.13517195E-01
   0.77450   0.11979456E-01
   0.77550   0.10875274E-01
   0.77650   0.99279117E-02
   0.77750   0.91774529E-02
   0.77850   0.86266017E-02
   0.77950   0.82419319E-02
   0.78050   0.79611074E-02
   0.78150   0.76584015E-02
   0.78250   0.71686287E-02
   0.78350   0.66321651E-02
   0.78450   0.61821188E-02
   0.78550   0.57859388E-02
   0.78650   0.54132948E-02
   0.78750   0.50550201E-02
   0.78850   0.47122040E-02
   0.78950   0.43878495E-02
   0.79050   0.40851594E-02
   0.79150   0.38079640E-02
   0.79250   0.35600376E-02
   0.79350   0.33437477E-02
   0.79450   0.31595298E-02
   0.79550   0.30064716E-02
   0.79650   0.28831949E-02
   0.79750   0.27881744E-02
   0.79850   0.27193786E-02
   0.79950   0.26737747E-02
   0.80050   0.26473051E-02
   0.80150   0.26355127E-02
   0.80250   0.26345004E-02
   0.80350   0.26416297E-02
   0.80450   0.26555175E-02
   0.80550   0.26754006E-02
   0.80650   0.27003363E-02
   0.80750   0.27287514E-02
   0.80850   0.27585600E-02
   0.80950   0.27877481E-02
   0.81050   0.28150547E-02
   0.81150   0.28403199E-02
   0.81250   0.28642942E-02
   0.81350   0.28880532E-02
   0.81450   0.29123724E-02
   0.81550   0.29373851E-02
   0.81650   0.29626340E-02
   0.81750   0.29874302E-02
   0.81850   0.30113081E-02
   0.81950   0.30343477E-02
   0.82050   0.30572359E-02
   0.82150   0.30811133E-02
   0.82250   0.31073797E-02
   0.82350   0.31377431E-02
   0.82450   0.31750177E-02
   0.82550   0.32255885E-02
   0.82650   0.32921033E-02
   0.82750   0.33586253E-02
   0.82850   0.34230896E-02
   0.82950   0.34892815E-02
   0.83050   0.35603251E-02
   0.83150   0.36388671E-02
   0.83250   0.37273844E-02
   0.83350   0.38283919E-02
   0.83450   0.39446345E-02
   0.83550   0.40792637E-02
   0.83650   0.42359992E-02
   0.83750   0.44192704E-02
   0.83850   0.46343636E-02
   0.83950   0.48875683E-02
   0.84050   0.51859869E-02
   0.84150   0.55342992E-02
   0.84250   0.59072315E-02
   0.84350   0.61432505E-02
   0.84450   0.62090424E-02
   0.84550   0.62808166E-02
   0.84650   0.63991030E-02
   0.84750   0.65627098E-02
   0.84850   0.67758258E-02
   0.84950   0.70958375E-02
   0.85050   0.76299128E-02
   0.85150   0.89193219E-02
   0.85250   0.26154013E-01
   0.85350   0.92235161E-02
   0.85450   0.10421157E-01
   0.85550   0.13281266E-01
   0.85650   0.19174879E-01
   0.85750   0.32269973E-01
   0.85850   0.66476256E-01
   0.85950   0.12168223E+00
   0.86050   0.12024473E+00
   0.86150   0.11765637E+00
   0.86250   0.10700430E+00
   0.86350   0.12301564E+00
   0.86450   0.15574142E+00
   0.86550   0.18065698E+00
   0.86650   0.18589611E+00
   0.86750   0.17006093E+00
   0.86850   0.16097534E+00
   0.86950   0.14457303E+00
   0.87050   0.12632687E+00
   0.87150   0.11796072E+00
   0.87250   0.13340913E+00
   0.87350   0.15861632E+00
   0.87450   0.15039805E+00
   0.87550   0.13056962E+00
   0.87650   0.11562552E+00
   0.87750   0.10445643E+00
   0.87850   0.95677964E-01
   0.87950   0.88988803E-01
   0.88050   0.83956450E-01
   0.88150   0.79814732E-01
   0.88250   0.75973779E-01
   0.88350   0.72399981E-01
   0.88450   0.69387861E-01
   0.88550   0.67125909E-01
   0.88650   0.65569632E-01
   0.88750   0.64555451E-01
   0.88850   0.63929021E-01
   0.88950   0.63588075E-01
   0.89050   0.63441291E-01
   0.89150   0.63365377E-01
   0.89250   0.63244306E-01
   0.89350   0.63046440E-01
   0.89450   0.62817656E-01
   0.89550   0.62592790E-01
   0.89650   0.62353533E-01
   0.89750   0.62085159E-01
   0.89850   0.61840035E-01
   0.89950   0.61727639E-01
   0.90050   0.61889093E-01
   0.90150   0.62426683E-01
   0.90250   0.63201420E-01
   0.90350   0.64172395E-01
   0.90450   0.65287873E-01
   0.90550   0.66495702E-01
   0.90650   0.67768529E-01
   0.90750   0.69088504E-01
   0.90850   0.70438921E-01
   0.90950   0.71802311E-01
   0.91050   0.73161736E-01
   0.91150   0.74503154E-01
   0.91250   0.75817622E-01
   0.91350   0.77102996E-01
   0.91450   0.78364626E-01
   0.91550   0.79615287E-01
   0.91650   0.80874689E-01
   0.91750   0.82169667E-01
   0.91850   0.83535358E-01
   0.91950   0.85017741E-01
   0.92050   0.86678118E-01
   0.92150   0.88603914E-01
   0.92250   0.90950362E-01
   0.92350   0.94205424E-01
   0.92450   0.10254347E+00
   0.92550   0.10043152E+00
   0.92650   0.10278449E+00
   0.92750   0.10751118E+00
   0.92850   0.11419675E+00
   0.92950   0.12538172E+00
   0.93050   0.12804826E+00
   0.93150   0.12855223E+00
   0.93250   0.13397877E+00
   0.93350   0.14136080E+00
   0.93450   0.15008873E+00
   0.93550   0.16003847E+00
   0.93650   0.17095962E+00
   0.93750   0.18157835E+00
   0.93850   0.19009101E+00
   0.93950   0.19873489E+00
   0.94050   0.21281630E+00
   0.94150   0.23497570E+00
   0.94250   0.26129529E+00
   0.94350   0.28213286E+00
   0.94450   0.29518348E+00
   0.94550   0.30518067E+00
   0.94650   0.31559998E+00
   0.94750   0.32762331E+00
   0.94850   0.34336609E+00
   0.94950   0.36631230E+00
   0.95050   0.39458150E+00
   0.95150   0.42646000E+00
   0.95250   0.46247765E+00
   0.95350   0.49644959E+00
   0.95450   0.51760852E+00
   0.95550   0.52469224E+00
   0.95650   0.52409923E+00
   0.95750   0.52246493E+00
   0.95850   0.52603066E+00
   0.95950   0.53505760E+00
   0.96050   0.54829782E+00
   0.96150   0.56296802E+00
   0.96250   0.57326359E+00
   0.96350   0.57520717E+00
   0.96450   0.57269275E+00
   0.96550   0.57193357E+00
   0.96650   0.57559115E+00
   0.96750   0.58148819E+00
   0.96850   0.58368945E+00
   0.96950   0.58332610E+00
   0.97050   0.58723468E+00
   0.97150   0.59435421E+00
   0.97250   0.59950066E+00
   0.97350   0.59933865E+00
   0.97450   0.59549379E+00
   0.97550   0.59227008E+00
   0.97650   0.59279263E+00
   0.97750   0.59769934E+00
   0.97850   0.60715991E+00
   0.97950   0.62169802E+00
   0.98050   0.64155513E+00
   0.98150   0.66551089E+00
   0.98250   0.68909180E+00
   0.98350   0.70536619E+00
   0.98450   0.70946813E+00
   0.98550   0.70053554E+00
   0.98650   0.68300843E+00
   0.98750   0.66704786E+00
   0.98850   0.66127163E+00
   0.98950   0.66531730E+00
   0.99050   0.67375720E+00
   0.99150   0.68389225E+00
   0.99250   0.69499773E+00
   0.99350   0.70675248E+00
   0.99450   0.71890444E+00
   0.99550   0.73206687E+00
   0.99650   0.74462330E+00
   0.99750   0.75288558E+00
   0.99850   0.75578904E+00
   0.99950   0.75713885E+00
