# Transmission, k-averaged
# Date: 2021-05-13
#   E [eV]           T [G0]
   0.00050   0.10429691E-01
   0.00150   0.70950530E-01
   0.00250   0.32250758E-01
   0.00350   0.21241104E-01
   0.00450   0.35764821E-01
   0.00550   0.52389972E-01
   0.00650   0.20946903E-01
   0.00750   0.50905086E-01
   0.00850   0.26181562E-01
   0.00950   0.22790616E-01
   0.01050   0.63676946E-01
   0.01150   0.20571854E-01
   0.01250   0.19815207E-01
   0.01350   0.56584653E-01
   0.01450   0.29257262E-01
   0.01550   0.14924958E-01
   0.01650   0.20649543E-01
   0.01750   0.64256042E-01
   0.01850   0.29004794E-01
   0.01950   0.12423040E-01
   0.02050   0.12389245E-01
   0.02150   0.30480403E-01
   0.02250   0.72228916E-01
   0.02350   0.14174317E-01
   0.02450   0.68910271E-02
   0.02550   0.71034366E-02
   0.02650   0.18085320E-01
   0.02750   0.81770331E-01
   0.02850   0.89794453E-02
   0.02950   0.38810654E-02
   0.03050   0.38548468E-02
   0.03150   0.84410263E-02
   0.03250   0.61057191E-01
   0.03350   0.27015638E-01
   0.03450   0.95197009E-02
   0.03550   0.77260695E-02
   0.03650   0.10476111E-01
   0.03750   0.21850992E-01
   0.03850   0.43461893E-01
   0.03950   0.27336180E-01
   0.04050   0.14910140E-01
   0.04150   0.11122121E-01
   0.04250   0.10544761E-01
   0.04350   0.11122152E-01
   0.04450   0.10564865E-01
   0.04550   0.76221228E-02
   0.04650   0.50203130E-02
   0.04750   0.34889746E-02
   0.04850   0.25933147E-02
   0.04950   0.20633105E-02
   0.05050   0.17657361E-02
   0.05150   0.16313441E-02
   0.05250   0.16198013E-02
   0.05350   0.17050605E-02
   0.05450   0.18688147E-02
   0.05550   0.20956888E-02
   0.05650   0.23680069E-02
   0.05750   0.26618289E-02
   0.05850   0.29489144E-02
   0.05950   0.32071071E-02
   0.06050   0.34328029E-02
   0.06150   0.36440706E-02
   0.06250   0.38713280E-02
   0.06350   0.41427030E-02
   0.06450   0.44699544E-02
   0.06550   0.48354440E-02
   0.06650   0.51840241E-02
   0.06750   0.54351762E-02
   0.06850   0.55270079E-02
   0.06950   0.54637548E-02
   0.07050   0.53152246E-02
   0.07150   0.51705246E-02
   0.07250   0.50964099E-02
   0.07350   0.51225768E-02
   0.07450   0.52389600E-02
   0.07550   0.53902888E-02
   0.07650   0.54764049E-02
   0.07750   0.53895055E-02
   0.07850   0.50927293E-02
   0.07950   0.46611177E-02
   0.08050   0.42242007E-02
   0.08150   0.38848836E-02
   0.08250   0.36940752E-02
   0.08350   0.36640426E-02
   0.08450   0.37769328E-02
   0.08550   0.39719315E-02
   0.08650   0.41376948E-02
   0.08750   0.41790823E-02
   0.08850   0.41318433E-02
   0.08950   0.41513578E-02
   0.09050   0.44001732E-02
   0.09150   0.49737869E-02
   0.09250   0.57206852E-02
   0.09350   0.63358545E-02
   0.09450   0.66608428E-02
   0.09550   0.66507217E-02
   0.09650   0.64563910E-02
   0.09750   0.62479153E-02
   0.09850   0.60963053E-02
   0.09950   0.59866845E-02
   0.10050   0.58669900E-02
   0.10150   0.56906245E-02
   0.10250   0.54424624E-02
   0.10350   0.51401192E-02
   0.10450   0.48161303E-02
   0.10550   0.44990708E-02
   0.10650   0.42051389E-02
   0.10750   0.39391192E-02
   0.10850   0.36990442E-02
   0.10950   0.34806435E-02
   0.11050   0.32801621E-02
   0.11150   0.30954992E-02
   0.11250   0.29261231E-02
   0.11350   0.27723731E-02
   0.11450   0.26346885E-02
   0.11550   0.25130757E-02
   0.11650   0.24069082E-02
   0.11750   0.23149860E-02
   0.11850   0.22357441E-02
   0.11950   0.21675013E-02
   0.12050   0.21086740E-02
   0.12150   0.20579270E-02
   0.12250   0.20142335E-02
   0.12350   0.19768658E-02
   0.12450   0.19453269E-02
   0.12550   0.19192569E-02
   0.12650   0.18983401E-02
   0.12750   0.18822305E-02
   0.12850   0.18705101E-02
   0.12950   0.18626775E-02
   0.13050   0.18581680E-02
   0.13150   0.18563907E-02
   0.13250   0.18567776E-02
   0.13350   0.18588289E-02
   0.13450   0.18621503E-02
   0.13550   0.18664689E-02
   0.13650   0.18716324E-02
   0.13750   0.18775873E-02
   0.13850   0.18843453E-02
   0.13950   0.18919440E-02
   0.14050   0.19004090E-02
   0.14150   0.19097256E-02
   0.14250   0.19198216E-02
   0.14350   0.19305649E-02
   0.14450   0.19417745E-02
   0.14550   0.19532409E-02
   0.14650   0.19647533E-02
   0.14750   0.19761268E-02
   0.14850   0.19872272E-02
   0.14950   0.19979852E-02
   0.15050   0.20084020E-02
   0.15150   0.20185416E-02
   0.15250   0.20285160E-02
   0.15350   0.20384621E-02
   0.15450   0.20485155E-02
   0.15550   0.20587889E-02
   0.15650   0.20693524E-02
   0.15750   0.20802235E-02
   0.15850   0.20913642E-02
   0.15950   0.21026896E-02
   0.16050   0.21140790E-02
   0.16150   0.21253966E-02
   0.16250   0.21365103E-02
   0.16350   0.21473097E-02
   0.16450   0.21577161E-02
   0.16550   0.21676857E-02
   0.16650   0.21771954E-02
   0.16750   0.21862141E-02
   0.16850   0.21946491E-02
   0.16950   0.22022517E-02
   0.17050   0.22084478E-02
   0.17150   0.22119835E-02
   0.17250   0.22100697E-02
   0.17350   0.21958621E-02
   0.17450   0.21494604E-02
   0.17550   0.20131955E-02
   0.17650   0.17854576E-02
   0.17750   0.15939067E-02
   0.17850   0.14507418E-02
   0.17950   0.13394743E-02
   0.18050   0.12495582E-02
   0.18150   0.11747763E-02
   0.18250   0.11112530E-02
   0.18350   0.10564259E-02
   0.18450   0.10085144E-02
   0.18550   0.96623151E-03
   0.18650   0.92861411E-03
   0.18750   0.89492183E-03
   0.18850   0.86457195E-03
   0.18950   0.83709683E-03
   0.19050   0.81211532E-03
   0.19150   0.78931282E-03
   0.19250   0.76842774E-03
   0.19350   0.74924110E-03
   0.19450   0.73156919E-03
   0.19550   0.71525824E-03
   0.19650   0.70017984E-03
   0.19750   0.68622752E-03
   0.19850   0.67331386E-03
   0.19950   0.66136825E-03
   0.20050   0.65033510E-03
   0.20150   0.64017286E-03
   0.20250   0.63085364E-03
   0.20350   0.62236440E-03
   0.20450   0.61470992E-03
   0.20550   0.60791947E-03
   0.20650   0.60205802E-03
   0.20750   0.59724745E-03
   0.20850   0.59370406E-03
   0.20950   0.59180771E-03
   0.21050   0.59223373E-03
   0.21150   0.59621368E-03
   0.21250   0.60606870E-03
   0.21350   0.62629202E-03
   0.21450   0.66527119E-03
   0.21550   0.73209574E-03
   0.21650   0.76405262E-03
   0.21750   0.47324452E-03
   0.21850   0.42674667E-03
   0.21950   0.54271176E-03
   0.22050   0.62618777E-03
   0.22150   0.68409072E-03
   0.22250   0.72798989E-03
   0.22350   0.76436641E-03
   0.22450   0.79688692E-03
   0.22550   0.82782202E-03
   0.22650   0.85874903E-03
   0.22750   0.89092104E-03
   0.22850   0.92548976E-03
   0.22950   0.96367334E-03
   0.23050   0.10069186E-02
   0.23150   0.10570713E-02
   0.23250   0.11163910E-02
   0.23350   0.11857034E-02
   0.23450   0.12466400E-02
   0.23550   0.12400853E-02
   0.23650   0.11925563E-02
   0.23750   0.11419721E-02
   0.23850   0.10952612E-02
   0.23950   0.10529552E-02
   0.24050   0.10145914E-02
   0.24150   0.97961782E-03
   0.24250   0.94755221E-03
   0.24350   0.91799896E-03
   0.24450   0.89063670E-03
   0.24550   0.86520339E-03
   0.24650   0.84148342E-03
   0.24750   0.81929797E-03
   0.24850   0.79849677E-03
   0.24950   0.77895279E-03
   0.25050   0.76055730E-03
   0.25150   0.74321683E-03
   0.25250   0.72684983E-03
   0.25350   0.71138493E-03
   0.25450   0.69675915E-03
   0.25550   0.68291620E-03
   0.25650   0.66980586E-03
   0.25750   0.65738271E-03
   0.25850   0.64560561E-03
   0.25950   0.63443714E-03
   0.26050   0.62384323E-03
   0.26150   0.61379262E-03
   0.26250   0.60425687E-03
   0.26350   0.59520983E-03
   0.26450   0.58662781E-03
   0.26550   0.57848904E-03
   0.26650   0.57077379E-03
   0.26750   0.56346407E-03
   0.26850   0.55654353E-03
   0.26950   0.54999738E-03
   0.27050   0.54381206E-03
   0.27150   0.53797534E-03
   0.27250   0.53247594E-03
   0.27350   0.52730349E-03
   0.27450   0.52244856E-03
   0.27550   0.51790214E-03
   0.27650   0.51365612E-03
   0.27750   0.50970260E-03
   0.27850   0.50603441E-03
   0.27950   0.50264469E-03
   0.28050   0.49952685E-03
   0.28150   0.49667479E-03
   0.28250   0.49408281E-03
   0.28350   0.49174536E-03
   0.28450   0.48965710E-03
   0.28550   0.48781285E-03
   0.28650   0.48620705E-03
   0.28750   0.48483344E-03
   0.28850   0.48368418E-03
   0.28950   0.48274829E-03
   0.29050   0.48200900E-03
   0.29150   0.48143859E-03
   0.29250   0.48098847E-03
   0.29350   0.48056827E-03
   0.29450   0.47999815E-03
   0.29550   0.47888697E-03
   0.29650   0.47627016E-03
   0.29750   0.46930442E-03
   0.29850   0.44823540E-03
   0.29950   0.39964152E-03
   0.30050   0.34925248E-03
   0.30150   0.31047390E-03
   0.30250   0.28028493E-03
   0.30350   0.25588629E-03
   0.30450   0.23556520E-03
   0.30550   0.21824893E-03
   0.30650   0.20322880E-03
   0.30750   0.19001374E-03
   0.30850   0.17824990E-03
   0.30950   0.16767425E-03
   0.31050   0.15808635E-03
   0.31150   0.14933050E-03
   0.31250   0.14128390E-03
   0.31350   0.13384876E-03
   0.31450   0.12694670E-03
   0.31550   0.12051490E-03
   0.31650   0.11450332E-03
   0.31750   0.10887262E-03
   0.31850   0.10359277E-03
   0.31950   0.98641918E-04
   0.32050   0.94005620E-04
   0.32150   0.89676236E-04
   0.32250   0.85652457E-04
   0.32350   0.81938881E-04
   0.32450   0.78545650E-04
   0.32550   0.75487951E-04
   0.32650   0.72785522E-04
   0.32750   0.70461974E-04
   0.32850   0.68543872E-04
   0.32950   0.67059649E-04
   0.33050   0.66038185E-04
   0.33150   0.65507069E-04
   0.33250   0.65490553E-04
   0.33350   0.66007131E-04
   0.33450   0.67066881E-04
   0.33550   0.68668574E-04
   0.33650   0.70796646E-04
   0.33750   0.73418276E-04
   0.33850   0.76480734E-04
   0.33950   0.79909223E-04
   0.34050   0.83605475E-04
   0.34150   0.87447508E-04
   0.34250   0.91290611E-04
   0.34350   0.94969968E-04
   0.34450   0.98305019E-04
   0.34550   0.10110566E-03
   0.34650   0.10318036E-03
   0.34750   0.10434597E-03
   0.34850   0.10443913E-03
   0.34950   0.10332884E-03
   0.35050   0.10092973E-03
   0.35150   0.97215503E-04
   0.35250   0.92231516E-04
   0.35350   0.86105778E-04
   0.35450   0.79056830E-04
   0.35550   0.71397233E-04
   0.35650   0.63530490E-04
   0.35750   0.55939025E-04
   0.35850   0.49159051E-04
   0.35950   0.43732609E-04
   0.36050   0.40101782E-04
   0.36150   0.38276296E-04
   0.36250   0.36649039E-04
   0.36350   0.33577078E-04
   0.36450   0.32367858E-04
   0.36550   0.33426462E-04
   0.36650   0.36069305E-04
   0.36750   0.39879917E-04
   0.36850   0.44645760E-04
   0.36950   0.50270082E-04
   0.37050   0.56726880E-04
   0.37150   0.64039756E-04
   0.37250   0.72273426E-04
   0.37350   0.81533144E-04
   0.37450   0.91970629E-04
   0.37550   0.10379739E-03
   0.37650   0.11730878E-03
   0.37750   0.13292526E-03
   0.37850   0.15126274E-03
   0.37950   0.17324009E-03
   0.38050   0.20009452E-03
   0.38150   0.23144504E-03
   0.38250   0.25376197E-03
   0.38350   0.25879650E-03
   0.38450   0.25822478E-03
   0.38550   0.25630931E-03
   0.38650   0.25395132E-03
   0.38750   0.25135436E-03
   0.38850   0.24855830E-03
   0.38950   0.24556418E-03
   0.39050   0.24236845E-03
   0.39150   0.23897315E-03
   0.39250   0.23538871E-03
   0.39350   0.23163411E-03
   0.39450   0.22773628E-03
   0.39550   0.22372883E-03
   0.39650   0.21965083E-03
   0.39750   0.21554534E-03
   0.39850   0.21145790E-03
   0.39950   0.20743489E-03
   0.40050   0.20352205E-03
   0.40150   0.19976290E-03
   0.40250   0.19619730E-03
   0.40350   0.19286014E-03
   0.40450   0.18978007E-03
   0.40550   0.18697823E-03
   0.40650   0.18446690E-03
   0.40750   0.18224743E-03
   0.40850   0.18030650E-03
   0.40950   0.17860794E-03
   0.41050   0.17707252E-03
   0.41150   0.17552014E-03
   0.41250   0.17347434E-03
   0.41350   0.16938722E-03
   0.41450   0.15958671E-03
   0.41550   0.14732414E-03
   0.41650   0.13799341E-03
   0.41750   0.13124244E-03
   0.41850   0.12626976E-03
   0.41950   0.12256822E-03
   0.42050   0.11982091E-03
   0.42150   0.11781905E-03
   0.42250   0.11641759E-03
   0.42350   0.11551088E-03
   0.42450   0.11501821E-03
   0.42550   0.11487467E-03
   0.42650   0.11502447E-03
   0.42750   0.11541565E-03
   0.42850   0.11599479E-03
   0.42950   0.11670099E-03
   0.43050   0.11745770E-03
   0.43150   0.11816059E-03
   0.43250   0.11865792E-03
   0.43350   0.11871725E-03
   0.43450   0.11796701E-03
   0.43550   0.11579409E-03
   0.43650   0.11118239E-03
   0.43750   0.10259407E-03
   0.43850   0.88797409E-04
   0.43950   0.74416894E-04
   0.44050   0.78903373E-04
   0.44150   0.10942190E-03
   0.44250   0.13998173E-03
   0.44350   0.15930415E-03
   0.44450   0.17022766E-03
   0.44550   0.17585029E-03
   0.44650   0.17741995E-03
   0.44750   0.17484186E-03
   0.44850   0.16693416E-03
   0.44950   0.15122461E-03
   0.45050   0.12357162E-03
   0.45150   0.80860613E-04
   0.45250   0.48536778E-04
   0.45350   0.12330861E-03
   0.45450   0.25433741E-03
   0.45550   0.34861057E-03
   0.45650   0.43410953E-03
   0.45750   0.53206703E-03
   0.45850   0.63055963E-03
   0.45950   0.70082652E-03
   0.46050   0.72217570E-03
   0.46150   0.69942721E-03
   0.46250   0.66872814E-03
   0.46350   0.68335899E-03
   0.46450   0.93905733E-03
   0.46550   0.12945659E-02
   0.46650   0.11109962E-02
   0.46750   0.26284591E-02
   0.46850   0.21619787E-02
   0.46950   0.18341588E-02
   0.47050   0.17716063E-02
   0.47150   0.13388842E-02
   0.47250   0.98113180E-03
   0.47350   0.76804555E-03
   0.47450   0.65293652E-03
   0.47550   0.59610530E-03
   0.47650   0.57270477E-03
   0.47750   0.57009514E-03
   0.47850   0.58504380E-03
   0.47950   0.62135019E-03
   0.48050   0.68550417E-03
   0.48150   0.78109873E-03
   0.48250   0.89580455E-03
   0.48350   0.97305037E-03
   0.48450   0.93231624E-03
   0.48550   0.78882754E-03
   0.48650   0.63238200E-03
   0.48750   0.51127735E-03
   0.48850   0.43032822E-03
   0.48950   0.38093547E-03
   0.49050   0.35365010E-03
   0.49150   0.34100041E-03
   0.49250   0.33756054E-03
   0.49350   0.33950273E-03
   0.49450   0.34416039E-03
   0.49550   0.34966151E-03
   0.49650   0.35458489E-03
   0.49750   0.35761241E-03
   0.49850   0.35845715E-03
   0.49950   0.36090589E-03
   0.50050   0.36494815E-03
   0.50150   0.36885729E-03
   0.50250   0.37198598E-03
   0.50350   0.37417599E-03
   0.50450   0.37547859E-03
   0.50550   0.37605045E-03
   0.50650   0.37610179E-03
   0.50750   0.37586334E-03
   0.50850   0.37556421E-03
   0.50950   0.37541948E-03
   0.51050   0.37562795E-03
   0.51150   0.37637920E-03
   0.51250   0.37786874E-03
   0.51350   0.38031992E-03
   0.51450   0.38401270E-03
   0.51550   0.38932095E-03
   0.51650   0.39676356E-03
   0.51750   0.40707161E-03
   0.51850   0.42122471E-03
   0.51950   0.43994663E-03
   0.52050   0.45808943E-03
   0.52150   0.45067008E-03
   0.52250   0.42316661E-03
   0.52350   0.39552129E-03
   0.52450   0.37129453E-03
   0.52550   0.35040797E-03
   0.52650   0.33237599E-03
   0.52750   0.31675180E-03
   0.52850   0.30315990E-03
   0.52950   0.29124619E-03
   0.53050   0.28054984E-03
   0.53150   0.27009353E-03
   0.53250   0.25677713E-03
   0.53350   0.23428531E-03
   0.53450   0.21056928E-03
   0.53550   0.19373572E-03
   0.53650   0.18276529E-03
   0.53750   0.17646940E-03
   0.53850   0.17429276E-03
   0.53950   0.17607909E-03
   0.54050   0.18190290E-03
   0.54150   0.19193976E-03
   0.54250   0.20631652E-03
   0.54350   0.22490219E-03
   0.54450   0.24704213E-03
   0.54550   0.27134124E-03
   0.54650   0.29575813E-03
   0.54750   0.31825653E-03
   0.54850   0.33765688E-03
   0.54950   0.35353377E-03
   0.55050   0.36490522E-03
   0.55150   0.36971766E-03
   0.55250   0.36630742E-03
   0.55350   0.35489968E-03
   0.55450   0.33745030E-03
   0.55550   0.31650503E-03
   0.55650   0.29427608E-03
   0.55750   0.27229902E-03
   0.55850   0.25147203E-03
   0.55950   0.23222795E-03
   0.56050   0.21470517E-03
   0.56150   0.19887472E-03
   0.56250   0.18462255E-03
   0.56350   0.17179872E-03
   0.56450   0.16024460E-03
   0.56550   0.14980701E-03
   0.56650   0.14034455E-03
   0.56750   0.13172999E-03
   0.56850   0.12385020E-03
   0.56950   0.11660535E-03
   0.57050   0.10990741E-03
   0.57150   0.10367883E-03
   0.57250   0.97851080E-04
   0.57350   0.92363516E-04
   0.57450   0.87162349E-04
   0.57550   0.82199913E-04
   0.57650   0.77434255E-04
   0.57750   0.72829062E-04
   0.57850   0.68354246E-04
   0.57950   0.63987311E-04
   0.58050   0.59716105E-04
   0.58150   0.55543591E-04
   0.58250   0.51496016E-04
   0.58350   0.47636531E-04
   0.58450   0.44087734E-04
   0.58550   0.41068823E-04
   0.58650   0.38956063E-04
   0.58750   0.38378868E-04
   0.58850   0.40364219E-04
   0.58950   0.46526933E-04
   0.59050   0.59238577E-04
   0.59150   0.81528109E-04
   0.59250   0.11615726E-03
   0.59350   0.16329440E-03
   0.59450   0.21771737E-03
   0.59550   0.26925068E-03
   0.59650   0.30842173E-03
   0.59750   0.33189176E-03
   0.59850   0.34217534E-03
   0.59950   0.34399776E-03
   0.60050   0.34157414E-03
   0.60150   0.33777871E-03
   0.60250   0.33431844E-03
   0.60350   0.33213574E-03
   0.60450   0.33174141E-03
   0.60550   0.33343228E-03
   0.60650   0.33742181E-03
   0.60750   0.34391889E-03
   0.60850   0.35318016E-03
   0.60950   0.36555275E-03
   0.61050   0.38151979E-03
   0.61150   0.40175996E-03
   0.61250   0.42723474E-03
   0.61350   0.45932169E-03
   0.61450   0.50000899E-03
   0.61550   0.55207766E-03
   0.61650   0.61836088E-03
   0.61750   0.69156894E-03
   0.61850   0.70964789E-03
   0.61950   0.65604481E-03
   0.62050   0.59476838E-03
   0.62150   0.54072303E-03
   0.62250   0.49390545E-03
   0.62350   0.45742065E-03
   0.62450   0.43831120E-03
   0.62550   0.44029229E-03
   0.62650   0.40719990E-03
   0.62750   0.35294073E-03
   0.62850   0.30522817E-03
   0.62950   0.21283953E-03
   0.63050   0.24254233E-03
   0.63150   0.24110777E-03
   0.63250   0.23115637E-03
   0.63350   0.21984892E-03
   0.63450   0.20867474E-03
   0.63550   0.19815401E-03
   0.63650   0.18876216E-03
   0.63750   0.18123860E-03
   0.63850   0.17838385E-03
   0.63950   0.21423526E-03
   0.64050   0.16927571E-03
   0.64150   0.13688995E-03
   0.64250   0.12695680E-03
   0.64350   0.13431601E-03
   0.64450   0.17855216E-03
   0.64550   0.63295444E-02
   0.64650   0.65528094E-02
   0.64750   0.19059040E-01
   0.64850   0.10965462E-01
   0.64950   0.81056282E-02
   0.65050   0.45224824E-02
   0.65150   0.31500151E-02
   0.65250   0.23957011E-02
   0.65350   0.18766423E-02
   0.65450   0.15519698E-02
   0.65550   0.13743844E-02
   0.65650   0.12673021E-02
   0.65750   0.11973212E-02
   0.65850   0.11492354E-02
   0.65950   0.11134926E-02
   0.66050   0.10867778E-02
   0.66150   0.10677002E-02
   0.66250   0.10545829E-02
   0.66350   0.10463825E-02
   0.66450   0.10430350E-02
   0.66550   0.10448050E-02
   0.66650   0.10516479E-02
   0.66750   0.10628611E-02
   0.66850   0.10770230E-02
   0.66950   0.10923396E-02
   0.67050   0.11072824E-02
   0.67150   0.11210756E-02
   0.67250   0.11336697E-02
   0.67350   0.11452894E-02
   0.67450   0.11559670E-02
   0.67550   0.11654038E-02
   0.67650   0.11731957E-02
   0.67750   0.11792091E-02
   0.67850   0.11838197E-02
   0.67950   0.11878577E-02
   0.68050   0.11923091E-02
   0.68150   0.11979517E-02
   0.68250   0.12050823E-02
   0.68350   0.12133324E-02
   0.68450   0.12212154E-02
   0.68550   0.12237283E-02
   0.68650   0.11997069E-02
   0.68750   0.10885267E-02
   0.68850   0.92948275E-03
   0.68950   0.80071675E-03
   0.69050   0.70167711E-03
   0.69150   0.62320865E-03
   0.69250   0.55920152E-03
   0.69350   0.50589791E-03
   0.69450   0.46094626E-03
   0.69550   0.42281143E-03
   0.69650   0.39042640E-03
   0.69750   0.36299697E-03
   0.69850   0.33990518E-03
   0.69950   0.32067634E-03
   0.70050   0.30498722E-03
   0.70150   0.29270677E-03
   0.70250   0.28397967E-03
   0.70350   0.27938196E-03
   0.70450   0.27993714E-03
   0.70550   0.28339628E-03
   0.70650   0.28055359E-03
   0.70750   0.27369437E-03
   0.70850   0.26626937E-03
   0.70950   0.25919659E-03
   0.71050   0.25267084E-03
   0.71150   0.24668421E-03
   0.71250   0.24117068E-03
   0.71350   0.23605583E-03
   0.71450   0.23127551E-03
   0.71550   0.22678106E-03
   0.71650   0.22253831E-03
   0.71750   0.21852351E-03
   0.71850   0.21471913E-03
   0.71950   0.21111063E-03
   0.72050   0.20768521E-03
   0.72150   0.20443235E-03
   0.72250   0.20134557E-03
   0.72350   0.19842501E-03
   0.72450   0.19567976E-03
   0.72550   0.19312998E-03
   0.72650   0.19080874E-03
   0.72750   0.18876497E-03
   0.72850   0.18706969E-03
   0.72950   0.18583293E-03
   0.73050   0.18525140E-03
   0.73150   0.18574337E-03
   0.73250   0.18787912E-03
   0.73350   0.19037082E-03
   0.73450   0.19220398E-03
   0.73550   0.19378880E-03
   0.73650   0.19542835E-03
   0.73750   0.19728963E-03
   0.73850   0.19947662E-03
   0.73950   0.20206114E-03
   0.74050   0.20509578E-03
   0.74150   0.20861978E-03
   0.74250   0.21266176E-03
   0.74350   0.21724140E-03
   0.74450   0.22237070E-03
   0.74550   0.22805513E-03
   0.74650   0.23429528E-03
   0.74750   0.24108862E-03
   0.74850   0.24843204E-03
   0.74950   0.25632471E-03
   0.75050   0.26477201E-03
   0.75150   0.27379036E-03
   0.75250   0.28341418E-03
   0.75350   0.29370654E-03
   0.75450   0.30477723E-03
   0.75550   0.31681819E-03
   0.75650   0.33018261E-03
   0.75750   0.34559733E-03
   0.75850   0.36486541E-03
   0.75950   0.39398382E-03
   0.76050   0.46653947E-03
   0.76150   0.18395835E-02
   0.76250   0.70913817E-03
   0.76350   0.62705897E-03
   0.76450   0.69766789E-03
   0.76550   0.88621042E-03
   0.76650   0.12394242E-02
   0.76750   0.18898856E-02
   0.76850   0.27546163E-02
   0.76950   0.20087559E-02
   0.77050   0.11430435E-02
   0.77150   0.28706597E-01
   0.77250   0.12767859E+00
   0.77350   0.10327263E+00
   0.77450   0.46112906E-01
   0.77550   0.37983384E-01
   0.77650   0.39009739E-01
   0.77750   0.35356939E-01
   0.77850   0.29642252E-01
   0.77950   0.23459107E-01
   0.78050   0.18863738E-01
   0.78150   0.15862456E-01
   0.78250   0.13444878E-01
   0.78350   0.11510476E-01
   0.78450   0.10037159E-01
   0.78550   0.89431750E-02
   0.78650   0.81462646E-02
   0.78750   0.74972264E-02
   0.78850   0.69320207E-02
   0.78950   0.64593190E-02
   0.79050   0.60645570E-02
   0.79150   0.57086619E-02
   0.79250   0.53629288E-02
   0.79350   0.50189476E-02
   0.79450   0.46789576E-02
   0.79550   0.43482222E-02
   0.79650   0.40338039E-02
   0.79750   0.37439924E-02
   0.79850   0.34864096E-02
   0.79950   0.32665555E-02
   0.80050   0.30876556E-02
   0.80150   0.29509354E-02
   0.80250   0.28555684E-02
   0.80350   0.27985345E-02
   0.80450   0.27750037E-02
   0.80550   0.27793879E-02
   0.80650   0.28065497E-02
   0.80750   0.28524320E-02
   0.80850   0.29137579E-02
   0.80950   0.29871615E-02
   0.81050   0.30685067E-02
   0.81150   0.31530014E-02
   0.81250   0.32361548E-02
   0.81350   0.33149754E-02
   0.81450   0.33885471E-02
   0.81550   0.34575509E-02
   0.81650   0.35230836E-02
   0.81750   0.35855665E-02
   0.81850   0.36443695E-02
   0.81950   0.36982896E-02
   0.82050   0.37465200E-02
   0.82150   0.37894896E-02
   0.82250   0.38290548E-02
   0.82350   0.38679731E-02
   0.82450   0.39089858E-02
   0.82550   0.39536408E-02
   0.82650   0.40007085E-02
   0.82750   0.40495400E-02
   0.82850   0.41007134E-02
   0.82950   0.41546300E-02
   0.83050   0.42123445E-02
   0.83150   0.42756828E-02
   0.83250   0.43470114E-02
   0.83350   0.44289152E-02
   0.83450   0.45239697E-02
   0.83550   0.46346686E-02
   0.83650   0.47635017E-02
   0.83750   0.49131238E-02
   0.83850   0.50865239E-02
   0.83950   0.52870889E-02
   0.84050   0.55180606E-02
   0.84150   0.57784813E-02
   0.84250   0.60352348E-02
   0.84350   0.61319685E-02
   0.84450   0.60630213E-02
   0.84550   0.59984080E-02
   0.84650   0.59671225E-02
   0.84750   0.59603085E-02
   0.84850   0.59681158E-02
   0.84950   0.60030641E-02
   0.85050   0.60672960E-02
   0.85150   0.61565107E-02
   0.85250   0.62678964E-02
   0.85350   0.64002876E-02
   0.85450   0.65539232E-02
   0.85550   0.67304298E-02
   0.85650   0.69331159E-02
   0.85750   0.71681598E-02
   0.85850   0.74504921E-02
   0.85950   0.78528849E-02
   0.86050   0.96962173E-02
   0.86150   0.28561803E-01
   0.86250   0.98560527E-02
   0.86350   0.10852986E-01
   0.86450   0.14369206E-01
   0.86550   0.32295354E-01
   0.86650   0.96335240E-01
   0.86750   0.12349829E+00
   0.86850   0.11834653E+00
   0.86950   0.10810290E+00
   0.87050   0.11876597E+00
   0.87150   0.15179266E+00
   0.87250   0.19627681E+00
   0.87350   0.21496522E+00
   0.87450   0.19631703E+00
   0.87550   0.19156009E+00
   0.87650   0.19323653E+00
   0.87750   0.17047833E+00
   0.87850   0.15730430E+00
   0.87950   0.16920879E+00
   0.88050   0.18277927E+00
   0.88150   0.17346416E+00
   0.88250   0.15348820E+00
   0.88350   0.13405515E+00
   0.88450   0.11717837E+00
   0.88550   0.10455734E+00
   0.88650   0.96006878E-01
   0.88750   0.90004563E-01
   0.88850   0.85169055E-01
   0.88950   0.81128232E-01
   0.89050   0.78160554E-01
   0.89150   0.76380998E-01
   0.89250   0.75537235E-01
   0.89350   0.75210430E-01
   0.89450   0.75051539E-01
   0.89550   0.74892871E-01
   0.89650   0.74677244E-01
   0.89750   0.74351676E-01
   0.89850   0.73891073E-01
   0.89950   0.73359996E-01
   0.90050   0.72892934E-01
   0.90150   0.72535589E-01
   0.90250   0.72116695E-01
   0.90350   0.71786158E-01
   0.90450   0.71703926E-01
   0.90550   0.71910582E-01
   0.90650   0.72376810E-01
   0.90750   0.73042654E-01
   0.90850   0.73862754E-01
   0.90950   0.74822754E-01
   0.91050   0.75923674E-01
   0.91150   0.77160150E-01
   0.91250   0.78512192E-01
   0.91350   0.79950020E-01
   0.91450   0.81443124E-01
   0.91550   0.82967401E-01
   0.91650   0.84508322E-01
   0.91750   0.86061075E-01
   0.91850   0.87629721E-01
   0.91950   0.89227088E-01
   0.92050   0.90875700E-01
   0.92150   0.92608318E-01
   0.92250   0.94467007E-01
   0.92350   0.96500561E-01
   0.92450   0.98760881E-01
   0.92550   0.10129905E+00
   0.92650   0.10416237E+00
   0.92750   0.10739435E+00
   0.92850   0.11104122E+00
   0.92950   0.11517245E+00
   0.93050   0.11994889E+00
   0.93150   0.12606473E+00
   0.93250   0.13819461E+00
   0.93350   0.13689992E+00
   0.93450   0.14393014E+00
   0.93550   0.15327103E+00
   0.93650   0.16578025E+00
   0.93750   0.17577560E+00
   0.93850   0.17767300E+00
   0.93950   0.18395428E+00
   0.94050   0.19357964E+00
   0.94150   0.20546617E+00
   0.94250   0.21976127E+00
   0.94350   0.23695846E+00
   0.94450   0.25629908E+00
   0.94550   0.27421135E+00
   0.94650   0.28951517E+00
   0.94750   0.30371496E+00
   0.94850   0.31728509E+00
   0.94950   0.33009961E+00
   0.95050   0.34234232E+00
   0.95150   0.35515028E+00
   0.95250   0.37005916E+00
   0.95350   0.38801706E+00
   0.95450   0.40977544E+00
   0.95550   0.43668038E+00
   0.95650   0.46720624E+00
   0.95750   0.49742737E+00
   0.95850   0.52721018E+00
   0.95950   0.55533040E+00
   0.96050   0.57629597E+00
   0.96150   0.58665705E+00
   0.96250   0.59038627E+00
   0.96350   0.59378093E+00
   0.96450   0.59880859E+00
   0.96550   0.60223138E+00
   0.96650   0.60299319E+00
   0.96750   0.60608381E+00
   0.96850   0.61134756E+00
   0.96950   0.61410362E+00
   0.97050   0.61451203E+00
   0.97150   0.61791843E+00
   0.97250   0.62644207E+00
   0.97350   0.63613278E+00
   0.97450   0.64008570E+00
   0.97550   0.63899326E+00
   0.97650   0.64123660E+00
   0.97750   0.64857638E+00
   0.97850   0.65643787E+00
   0.97950   0.66067284E+00
   0.98050   0.65981603E+00
   0.98150   0.65406299E+00
   0.98250   0.64491135E+00
   0.98350   0.63459110E+00
   0.98450   0.62468004E+00
   0.98550   0.61395538E+00
   0.98650   0.60216945E+00
   0.98750   0.59737587E+00
   0.98850   0.60397482E+00
   0.98950   0.62080169E+00
   0.99050   0.64236933E+00
   0.99150   0.66254628E+00
   0.99250   0.67838830E+00
   0.99350   0.69000459E+00
   0.99450   0.69860107E+00
   0.99550   0.70565957E+00
   0.99650   0.71207058E+00
   0.99750   0.71873075E+00
   0.99850   0.72676235E+00
   0.99950   0.73683840E+00
