# Transmission, k-averaged
# Date: 2021-05-13
#   E [eV]           T [G0]
   0.00050   0.35743469E+00
   0.00150   0.77008940E-01
   0.00250   0.93041256E-01
   0.00350   0.74756034E-01
   0.00450   0.27458292E-01
   0.00550   0.17527152E-01
   0.00650   0.43838594E-01
   0.00750   0.85046701E-01
   0.00850   0.23647144E-01
   0.00950   0.12369171E+00
   0.01050   0.37071627E-01
   0.01150   0.18948964E-02
   0.01250   0.19543216E-01
   0.01350   0.50750427E-03
   0.01450   0.41925716E-02
   0.01550   0.20527026E-01
   0.01650   0.60490016E-01
   0.01750   0.38225785E-01
   0.01850   0.36487650E-01
   0.01950   0.10179889E+00
   0.02050   0.12456970E+00
   0.02150   0.47720000E-01
   0.02250   0.11918312E+00
   0.02350   0.45769971E-01
   0.02450   0.31837337E-01
   0.02550   0.15280938E+00
   0.02650   0.15977647E-01
   0.02750   0.16394256E-01
   0.02850   0.92293777E-01
   0.02950   0.77424925E-02
   0.03050   0.46026516E-02
   0.03150   0.14308209E-01
   0.03250   0.14380444E-01
   0.03350   0.24964823E-02
   0.03450   0.19610759E-02
   0.03550   0.57106647E-02
   0.03650   0.13052615E-01
   0.03750   0.18178920E-02
   0.03850   0.11428704E-02
   0.03950   0.19083314E-02
   0.04050   0.13198270E-01
   0.04150   0.43325750E-02
   0.04250   0.13742767E-02
   0.04350   0.12075087E-02
   0.04450   0.23774880E-02
   0.04550   0.71397386E-02
   0.04650   0.22275210E-02
   0.04750   0.91304141E-03
   0.04850   0.67728735E-03
   0.04950   0.76747988E-03
   0.05050   0.11440801E-02
   0.05150   0.13754331E-02
   0.05250   0.91360131E-03
   0.05350   0.58448885E-03
   0.05450   0.47752581E-03
   0.05550   0.50213153E-03
   0.05650   0.63129963E-03
   0.05750   0.76558557E-03
   0.05850   0.67990902E-03
   0.05950   0.49489399E-03
   0.06050   0.38585530E-03
   0.06150   0.35548030E-03
   0.06250   0.38470060E-03
   0.06350   0.45168554E-03
   0.06450   0.48391352E-03
   0.06550   0.41611929E-03
   0.06650   0.32068664E-03
   0.06750   0.26137620E-03
   0.06850   0.24157575E-03
   0.06950   0.25236513E-03
   0.07050   0.27923050E-03
   0.07150   0.28692320E-03
   0.07250   0.24837538E-03
   0.07350   0.19431862E-03
   0.07450   0.15683151E-03
   0.07550   0.14015379E-03
   0.07650   0.13986712E-03
   0.07750   0.14902430E-03
   0.07850   0.15275610E-03
   0.07950   0.13603395E-03
   0.08050   0.10818362E-03
   0.08150   0.86489861E-04
   0.08250   0.75651558E-04
   0.08350   0.74318217E-04
   0.08450   0.80106511E-04
   0.08550   0.87410284E-04
   0.08650   0.86395019E-04
   0.08750   0.75733558E-04
   0.08850   0.65244785E-04
   0.08950   0.61269850E-04
   0.09050   0.65571236E-04
   0.09150   0.78129917E-04
   0.09250   0.88940244E-04
   0.09350   0.84726606E-04
   0.09450   0.72122610E-04
   0.09550   0.61183317E-04
   0.09650   0.55590106E-04
   0.09750   0.55171775E-04
   0.09850   0.58809561E-04
   0.09950   0.64467298E-04
   0.10050   0.68709523E-04
   0.10150   0.68725421E-04
   0.10250   0.65338521E-04
   0.10350   0.61598075E-04
   0.10450   0.59669917E-04
   0.10550   0.60197501E-04
   0.10650   0.62766027E-04
   0.10750   0.66073175E-04
   0.10850   0.68180991E-04
   0.10950   0.67637542E-04
   0.11050   0.64707609E-04
   0.11150   0.60966093E-04
   0.11250   0.57882477E-04
   0.11350   0.56122084E-04
   0.11450   0.55613291E-04
   0.11550   0.55756958E-04
   0.11650   0.55643599E-04
   0.11750   0.54458069E-04
   0.11850   0.51987088E-04
   0.11950   0.48733094E-04
   0.12050   0.45477842E-04
   0.12150   0.42796128E-04
   0.12250   0.40886825E-04
   0.12350   0.39626848E-04
   0.12450   0.38677936E-04
   0.12550   0.37617781E-04
   0.12650   0.36123274E-04
   0.12750   0.34140201E-04
   0.12850   0.31893371E-04
   0.12950   0.29718780E-04
   0.13050   0.27876740E-04
   0.13150   0.26468924E-04
   0.13250   0.25444662E-04
   0.13350   0.24641022E-04
   0.13450   0.23840081E-04
   0.13550   0.22852924E-04
   0.13650   0.21610069E-04
   0.13750   0.20193020E-04
   0.13850   0.18772160E-04
   0.13950   0.17504934E-04
   0.14050   0.16468786E-04
   0.14150   0.15645321E-04
   0.14250   0.14933849E-04
   0.14350   0.14184390E-04
   0.14450   0.13258592E-04
   0.14550   0.12105860E-04
   0.14650   0.10795399E-04
   0.14750   0.94629131E-05
   0.14850   0.82213919E-05
   0.14950   0.71125842E-05
   0.15050   0.61146156E-05
   0.15150   0.51795550E-05
   0.15250   0.42769284E-05
   0.15350   0.34202603E-05
   0.15450   0.26553839E-05
   0.15550   0.20224061E-05
   0.15650   0.15311035E-05
   0.15750   0.11649872E-05
   0.15850   0.89716548E-06
   0.15950   0.70196756E-06
   0.16050   0.55935101E-06
   0.16150   0.45499948E-06
   0.16250   0.37894401E-06
   0.16350   0.32415994E-06
   0.16450   0.28559080E-06
   0.16550   0.25956311E-06
   0.16650   0.24343151E-06
   0.16750   0.23533102E-06
   0.16850   0.23397705E-06
   0.16950   0.23848668E-06
   0.17050   0.24819965E-06
   0.17150   0.26245667E-06
   0.17250   0.28021913E-06
   0.17350   0.29914202E-06
   0.17450   0.31258486E-06
   0.17550   0.30226636E-06
   0.17650   0.26740193E-06
   0.17750   0.24255817E-06
   0.17850   0.22951735E-06
   0.17950   0.22367911E-06
   0.18050   0.22242924E-06
   0.18150   0.22433331E-06
   0.18250   0.22853790E-06
   0.18350   0.23449408E-06
   0.18450   0.24182731E-06
   0.18550   0.25027364E-06
   0.18650   0.25964701E-06
   0.18750   0.26982141E-06
   0.18850   0.28071955E-06
   0.18950   0.29230372E-06
   0.19050   0.30456673E-06
   0.19150   0.31752282E-06
   0.19250   0.33119844E-06
   0.19350   0.34562390E-06
   0.19450   0.36082687E-06
   0.19550   0.37682810E-06
   0.19650   0.39364028E-06
   0.19750   0.41126941E-06
   0.19850   0.42971865E-06
   0.19950   0.44899366E-06
   0.20050   0.46910765E-06
   0.20150   0.49008543E-06
   0.20250   0.51196446E-06
   0.20350   0.53479187E-06
   0.20450   0.55861699E-06
   0.20550   0.58347842E-06
   0.20650   0.60938618E-06
   0.20750   0.63629773E-06
   0.20850   0.66408808E-06
   0.20950   0.69251126E-06
   0.21050   0.72114977E-06
   0.21150   0.74934468E-06
   0.21250   0.77609332E-06
   0.21350   0.79988894E-06
   0.21450   0.81845548E-06
   0.21550   0.82829575E-06
   0.21650   0.82417353E-06
   0.21750   0.80309297E-06
   0.21850   0.78296830E-06
   0.21950   0.77295499E-06
   0.22050   0.76768424E-06
   0.22150   0.76512760E-06
   0.22250   0.76477289E-06
   0.22350   0.76651867E-06
   0.22450   0.77039300E-06
   0.22550   0.77650441E-06
   0.22650   0.78507509E-06
   0.22750   0.79651375E-06
   0.22850   0.81151308E-06
   0.22950   0.83117345E-06
   0.23050   0.85716471E-06
   0.23150   0.89193071E-06
   0.23250   0.93871205E-06
   0.23350   0.99893055E-06
   0.23450   0.10460527E-05
   0.23550   0.99526312E-06
   0.23650   0.89210982E-06
   0.23750   0.79289447E-06
   0.23850   0.70572850E-06
   0.23950   0.62981150E-06
   0.24050   0.56345442E-06
   0.24150   0.50520072E-06
   0.24250   0.45389939E-06
   0.24350   0.40862477E-06
   0.24450   0.36860050E-06
   0.24550   0.33315092E-06
   0.24650   0.30167618E-06
   0.24750   0.27364260E-06
   0.24850   0.24858062E-06
   0.24950   0.22608515E-06
   0.25050   0.20581476E-06
   0.25150   0.18748835E-06
   0.25250   0.17087872E-06
   0.25350   0.15580376E-06
   0.25450   0.14211635E-06
   0.25550   0.12969424E-06
   0.25650   0.11843140E-06
   0.25750   0.10823122E-06
   0.25850   0.99002328E-07
   0.25950   0.90656528E-07
   0.26050   0.83108567E-07
   0.26150   0.76277011E-07
   0.26250   0.70085697E-07
   0.26350   0.64465198E-07
   0.26450   0.59354011E-07
   0.26550   0.54699207E-07
   0.26650   0.50456499E-07
   0.26750   0.46589744E-07
   0.26850   0.43070006E-07
   0.26950   0.39874323E-07
   0.27050   0.36984389E-07
   0.27150   0.34385316E-07
   0.27250   0.32064563E-07
   0.27350   0.30011119E-07
   0.27450   0.28214922E-07
   0.27550   0.26666505E-07
   0.27650   0.25356808E-07
   0.27750   0.24277174E-07
   0.27850   0.23419497E-07
   0.27950   0.22776575E-07
   0.28050   0.22342645E-07
   0.28150   0.22114108E-07
   0.28250   0.22090360E-07
   0.28350   0.22274589E-07
   0.28450   0.22674346E-07
   0.28550   0.23301686E-07
   0.28650   0.24172694E-07
   0.28750   0.25306282E-07
   0.28850   0.26722233E-07
   0.28950   0.28438533E-07
   0.29050   0.30468073E-07
   0.29150   0.32814697E-07
   0.29250   0.35468304E-07
   0.29350   0.38397658E-07
   0.29450   0.41537163E-07
   0.29550   0.44755652E-07
   0.29650   0.47766324E-07
   0.29750   0.49811938E-07
   0.29850   0.48536883E-07
   0.29950   0.41170853E-07
   0.30050   0.33637065E-07
   0.30150   0.28402775E-07
   0.30250   0.24666925E-07
   0.30350   0.21846400E-07
   0.30450   0.19622552E-07
   0.30550   0.17813395E-07
   0.30650   0.16308043E-07
   0.30750   0.15034839E-07
   0.30850   0.13944951E-07
   0.30950   0.13003409E-07
   0.31050   0.12183946E-07
   0.31150   0.11465907E-07
   0.31250   0.10832348E-07
   0.31350   0.10268853E-07
   0.31450   0.97627986E-08
   0.31550   0.93029033E-08
   0.31650   0.88789793E-08
   0.31750   0.84818090E-08
   0.31850   0.81031120E-08
   0.31950   0.77355757E-08
   0.32050   0.73729249E-08
   0.32150   0.70100215E-08
   0.32250   0.66429626E-08
   0.32350   0.62691856E-08
   0.32450   0.58875456E-08
   0.32550   0.54983578E-08
   0.32650   0.51033902E-08
   0.32750   0.47057842E-08
   0.32850   0.43098889E-08
   0.32950   0.39210035E-08
   0.33050   0.35450238E-08
   0.33150   0.31879992E-08
   0.33250   0.28556337E-08
   0.33350   0.25527684E-08
   0.33450   0.22829088E-08
   0.33550   0.20478710E-08
   0.33650   0.18476266E-08
   0.33750   0.16804108E-08
   0.33850   0.15431320E-08
   0.33950   0.14320657E-08
   0.34050   0.13437479E-08
   0.34150   0.12759058E-08
   0.34250   0.12282119E-08
   0.34350   0.12026327E-08
   0.34450   0.12032003E-08
   0.34550   0.12351610E-08
   0.34650   0.13036267E-08
   0.34750   0.14120194E-08
   0.34850   0.15606948E-08
   0.34950   0.17461081E-08
   0.35050   0.19607462E-08
   0.35150   0.21938387E-08
   0.35250   0.24326472E-08
   0.35350   0.26639932E-08
   0.35450   0.28756477E-08
   0.35550   0.30572653E-08
   0.35650   0.32006604E-08
   0.35750   0.32993122E-08
   0.35850   0.33469900E-08
   0.35950   0.33351306E-08
   0.36050   0.32477527E-08
   0.36150   0.30512424E-08
   0.36250   0.27031155E-08
   0.36350   0.23605029E-08
   0.36450   0.21862483E-08
   0.36550   0.21105844E-08
   0.36650   0.20877979E-08
   0.36750   0.20990614E-08
   0.36850   0.21358124E-08
   0.36950   0.21939481E-08
   0.37050   0.22717206E-08
   0.37150   0.23689264E-08
   0.37250   0.24866451E-08
   0.37350   0.26272859E-08
   0.37450   0.27948885E-08
   0.37550   0.29957392E-08
   0.37650   0.32394871E-08
   0.37750   0.35411680E-08
   0.37850   0.39249697E-08
   0.37950   0.44312296E-08
   0.38050   0.51254112E-08
   0.38150   0.60424026E-08
   0.38250   0.66690866E-08
   0.38350   0.65595662E-08
   0.38450   0.62058998E-08
   0.38550   0.58201852E-08
   0.38650   0.54524931E-08
   0.38750   0.51147371E-08
   0.38850   0.48083306E-08
   0.38950   0.45311728E-08
   0.39050   0.42797139E-08
   0.39150   0.40496495E-08
   0.39250   0.38361998E-08
   0.39350   0.36343037E-08
   0.39450   0.34388485E-08
   0.39550   0.32449945E-08
   0.39650   0.30486291E-08
   0.39750   0.28469447E-08
   0.39850   0.26391074E-08
   0.39950   0.24269227E-08
   0.40050   0.22153555E-08
   0.40150   0.20126927E-08
   0.40250   0.18301417E-08
   0.40350   0.16807260E-08
   0.40450   0.15775380E-08
   0.40550   0.15317196E-08
   0.40650   0.15508396E-08
   0.40750   0.16384308E-08
   0.40850   0.17951167E-08
   0.40950   0.20209006E-08
   0.41050   0.23168643E-08
   0.41150   0.26823066E-08
   0.41250   0.30962251E-08
   0.41350   0.34389844E-08
   0.41450   0.33546159E-08
   0.41550   0.29852310E-08
   0.41650   0.27281146E-08
   0.41750   0.25687601E-08
   0.41850   0.24589499E-08
   0.41950   0.23701534E-08
   0.42050   0.22864126E-08
   0.42150   0.21990707E-08
   0.42250   0.21039710E-08
   0.42350   0.19998518E-08
   0.42450   0.18873214E-08
   0.42550   0.17681440E-08
   0.42650   0.16447212E-08
   0.42750   0.15197049E-08
   0.42850   0.13957107E-08
   0.42950   0.12751138E-08
   0.43050   0.11599131E-08
   0.43150   0.10516533E-08
   0.43250   0.95139763E-09
   0.43350   0.85973911E-09
   0.43450   0.77684442E-09
   0.43550   0.70251821E-09
   0.43650   0.63628003E-09
   0.43750   0.57744526E-09
   0.43850   0.52520305E-09
   0.43950   0.47868609E-09
   0.44050   0.43702905E-09
   0.44150   0.39941367E-09
   0.44250   0.36510125E-09
   0.44350   0.33345238E-09
   0.44450   0.30393701E-09
   0.44550   0.27613595E-09
   0.44650   0.24973656E-09
   0.44750   0.22452505E-09
   0.44850   0.20037617E-09
   0.44950   0.17724297E-09
   0.45050   0.15514678E-09
   0.45150   0.13416869E-09
   0.45250   0.11444232E-09
   0.45350   0.96148263E-10
   0.45450   0.79508976E-10
   0.45550   0.64783089E-10
   0.45650   0.52256359E-10
   0.45750   0.42225591E-10
   0.45850   0.34970006E-10
   0.45950   0.30703416E-10
   0.46050   0.29501575E-10
   0.46150   0.31205274E-10
   0.46250   0.35315792E-10
   0.46350   0.40927439E-10
   0.46450   0.46772541E-10
   0.46550   0.51454917E-10
   0.46650   0.53870370E-10
   0.46750   0.53651032E-10
   0.46850   0.51343093E-10
   0.46950   0.48125868E-10
   0.47050   0.45211706E-10
   0.47150   0.43321915E-10
   0.47250   0.42533827E-10
   0.47350   0.42472401E-10
   0.47450   0.42618204E-10
   0.47550   0.42538480E-10
   0.47650   0.41982865E-10
   0.47750   0.40878155E-10
   0.47850   0.39278136E-10
   0.47950   0.37308098E-10
   0.48050   0.35121815E-10
   0.48150   0.32874634E-10
   0.48250   0.30709924E-10
   0.48350   0.28754903E-10
   0.48450   0.27122301E-10
   0.48550   0.25915691E-10
   0.48650   0.25237428E-10
   0.48750   0.25199154E-10
   0.48850   0.25935922E-10
   0.48950   0.27626221E-10
   0.49050   0.30522175E-10
   0.49150   0.34997390E-10
   0.49250   0.41624815E-10
   0.49350   0.51301824E-10
   0.49450   0.65425915E-10
   0.49550   0.85978481E-10
   0.49650   0.11444343E-09
   0.49750   0.14382637E-09
   0.49850   0.14003421E-09
   0.49950   0.10638546E-09
   0.50050   0.78455055E-10
   0.50150   0.58181623E-10
   0.50250   0.43244925E-10
   0.50350   0.32104777E-10
   0.50450   0.23801400E-10
   0.50550   0.17726456E-10
   0.50650   0.13503323E-10
   0.50750   0.10925599E-10
   0.50850   0.99269429E-11
   0.50950   0.10569789E-10
   0.51050   0.13044986E-10
   0.51150   0.17672419E-10
   0.51250   0.24882277E-10
   0.51350   0.35133237E-10
   0.51450   0.48687308E-10
   0.51550   0.65144112E-10
   0.51650   0.82765718E-10
   0.51750   0.98080113E-10
   0.51850   0.10675889E-09
   0.51950   0.10597345E-09
   0.52050   0.96140859E-10
   0.52150   0.80649237E-10
   0.52250   0.64509842E-10
   0.52350   0.50440641E-10
   0.52450   0.39033870E-10
   0.52550   0.30123480E-10
   0.52650   0.23379567E-10
   0.52750   0.18504708E-10
   0.52850   0.15279691E-10
   0.52950   0.13569909E-10
   0.53050   0.13330596E-10
   0.53150   0.14602299E-10
   0.53250   0.17238750E-10
   0.53350   0.18970424E-10
   0.53450   0.17694152E-10
   0.53550   0.15626287E-10
   0.53650   0.13688263E-10
   0.53750   0.12049818E-10
   0.53850   0.10739065E-10
   0.53950   0.97595274E-11
   0.54050   0.91183311E-11
   0.54150   0.88373232E-11
   0.54250   0.89615442E-11
   0.54350   0.95694433E-11
   0.54450   0.10787206E-10
   0.54550   0.12808827E-10
   0.54650   0.15921729E-10
   0.54750   0.20530773E-10
   0.54850   0.27152211E-10
   0.54950   0.36295043E-10
   0.55050   0.48050619E-10
   0.55150   0.61214353E-10
   0.55250   0.72642219E-10
   0.55350   0.80598687E-10
   0.55450   0.95989813E-10
   0.55550   0.14231451E-09
   0.55650   0.20582040E-09
   0.55750   0.21499555E-09
   0.55850   0.16145238E-09
   0.55950   0.10351735E-09
   0.56050   0.65251311E-10
   0.56150   0.42921659E-10
   0.56250   0.29939610E-10
   0.56350   0.22160338E-10
   0.56450   0.17327768E-10
   0.56550   0.14225088E-10
   0.56650   0.12180027E-10
   0.56750   0.10809988E-10
   0.56850   0.98918642E-11
   0.56950   0.92945330E-11
   0.57050   0.89437685E-11
   0.57150   0.88053054E-11
   0.57250   0.88803635E-11
   0.57350   0.92143723E-11
   0.57450   0.99292805E-11
   0.57550   0.11315833E-10
   0.57650   0.14115152E-10
   0.57750   0.20520630E-10
   0.57850   0.38422137E-10
   0.57950   0.98559744E-10
   0.58050   0.21846609E-09
   0.58150   0.14664549E-09
   0.58250   0.57551360E-10
   0.58350   0.28976778E-10
   0.58450   0.19937239E-10
   0.58550   0.17989230E-10
   0.58650   0.15922754E-10
   0.58750   0.12611644E-10
   0.58850   0.11108492E-10
   0.58950   0.10496977E-10
   0.59050   0.10217453E-10
   0.59150   0.10096796E-10
   0.59250   0.10071524E-10
   0.59350   0.10112094E-10
   0.59450   0.10202224E-10
   0.59550   0.10331974E-10
   0.59650   0.10494911E-10
   0.59750   0.10686734E-10
   0.59850   0.10904530E-10
   0.59950   0.11146362E-10
   0.60050   0.11411039E-10
   0.60150   0.11698102E-10
   0.60250   0.12008393E-10
   0.60350   0.12347413E-10
   0.60450   0.12726059E-10
   0.60550   0.13055804E-10
   0.60650   0.13437585E-10
   0.60750   0.13851486E-10
   0.60850   0.14288149E-10
   0.60950   0.14748177E-10
   0.61050   0.15232503E-10
   0.61150   0.15742156E-10
   0.61250   0.16278284E-10
   0.61350   0.16842193E-10
   0.61450   0.17435399E-10
   0.61550   0.18059727E-10
   0.61650   0.18717508E-10
   0.61750   0.19411833E-10
   0.61850   0.20146015E-10
   0.61950   0.20926495E-10
   0.62050   0.21773711E-10
   0.62150   0.22746017E-10
   0.62250   0.24014766E-10
   0.62350   0.25592256E-10
   0.62450   0.27219683E-10
   0.62550   0.28860556E-10
   0.62650   0.30534634E-10
   0.62750   0.32259050E-10
   0.62850   0.34046727E-10
   0.62950   0.35908103E-10
   0.63050   0.37852249E-10
   0.63150   0.39887541E-10
   0.63250   0.42022046E-10
   0.63350   0.44263773E-10
   0.63450   0.46620846E-10
   0.63550   0.49101629E-10
   0.63650   0.51714806E-10
   0.63750   0.54469481E-10
   0.63850   0.57375237E-10
   0.63950   0.60442207E-10
   0.64050   0.63681123E-10
   0.64150   0.67103406E-10
   0.64250   0.70721214E-10
   0.64350   0.74547500E-10
   0.64450   0.78596109E-10
   0.64550   0.82881819E-10
   0.64650   0.87420467E-10
   0.64750   0.92228981E-10
   0.64850   0.97325516E-10
   0.64950   0.10272953E-09
   0.65050   0.10846192E-09
   0.65150   0.11454508E-09
   0.65250   0.12100311E-09
   0.65350   0.12786187E-09
   0.65450   0.13514921E-09
   0.65550   0.14289506E-09
   0.65650   0.15113166E-09
   0.65750   0.15989372E-09
   0.65850   0.16921865E-09
   0.65950   0.17914678E-09
   0.66050   0.18972160E-09
   0.66150   0.20099006E-09
   0.66250   0.21300285E-09
   0.66350   0.22581471E-09
   0.66450   0.23948482E-09
   0.66550   0.25407715E-09
   0.66650   0.26966090E-09
   0.66750   0.28631103E-09
   0.66850   0.30410863E-09
   0.66950   0.32314157E-09
   0.67050   0.34350517E-09
   0.67150   0.36530273E-09
   0.67250   0.38864642E-09
   0.67350   0.41365794E-09
   0.67450   0.44046952E-09
   0.67550   0.46922494E-09
   0.67650   0.50008042E-09
   0.67750   0.53320615E-09
   0.67850   0.56878718E-09
   0.67950   0.60702537E-09
   0.68050   0.64814049E-09
   0.68150   0.69237244E-09
   0.68250   0.73998302E-09
   0.68350   0.79125839E-09
   0.68450   0.84651136E-09
   0.68550   0.90608487E-09
   0.68650   0.97035568E-09
   0.68750   0.10397342E-08
   0.68850   0.11146537E-08
   0.68950   0.11955983E-08
   0.69050   0.12831075E-08
   0.69150   0.13777719E-08
   0.69250   0.14802398E-08
   0.69350   0.15912238E-08
   0.69450   0.17115076E-08
   0.69550   0.18419539E-08
   0.69650   0.19835136E-08
   0.69750   0.21372351E-08
   0.69850   0.23042757E-08
   0.69950   0.24859139E-08
   0.70050   0.26835631E-08
   0.70150   0.28987874E-08
   0.70250   0.31333187E-08
   0.70350   0.33890775E-08
   0.70450   0.36681946E-08
   0.70550   0.39730303E-08
   0.70650   0.43061941E-08
   0.70750   0.46706101E-08
   0.70850   0.50695403E-08
   0.70950   0.55066161E-08
   0.71050   0.59858882E-08
   0.71150   0.65118813E-08
   0.71250   0.70896542E-08
   0.71350   0.77248696E-08
   0.71450   0.84238749E-08
   0.71550   0.91937897E-08
   0.71650   0.10042614E-07
   0.71750   0.10979343E-07
   0.71850   0.12014109E-07
   0.71950   0.13158338E-07
   0.72050   0.14424931E-07
   0.72150   0.15828483E-07
   0.72250   0.17385535E-07
   0.72350   0.19114857E-07
   0.72450   0.21037826E-07
   0.72550   0.23178849E-07
   0.72650   0.25565951E-07
   0.72750   0.28231574E-07
   0.72850   0.31213922E-07
   0.72950   0.34559729E-07
   0.73050   0.38332082E-07
   0.73150   0.42640693E-07
   0.73250   0.47730445E-07
   0.73350   0.53727817E-07
   0.73450   0.60496333E-07
   0.73550   0.68101592E-07
   0.73650   0.76680386E-07
   0.73750   0.86390713E-07
   0.73850   0.97412759E-07
   0.73950   0.10995443E-06
   0.74050   0.12425771E-06
   0.74150   0.14060585E-06
   0.74250   0.15933190E-06
   0.74350   0.18082892E-06
   0.74450   0.20556237E-06
   0.74550   0.23408532E-06
   0.74650   0.26705712E-06
   0.74750   0.30526661E-06
   0.74850   0.34966087E-06
   0.74950   0.40138124E-06
   0.75050   0.46180858E-06
   0.75150   0.53262045E-06
   0.75250   0.61586388E-06
   0.75350   0.71404799E-06
   0.75450   0.83026384E-06
   0.75550   0.96833901E-06
   0.75650   0.11330399E-05
   0.75750   0.13303364E-05
   0.75850   0.15677556E-05
   0.75950   0.18548511E-05
   0.76050   0.22038400E-05
   0.76150   0.26304710E-05
   0.76250   0.31552213E-05
   0.76350   0.38049716E-05
   0.76450   0.46153755E-05
   0.76550   0.56342660E-05
   0.76650   0.69266298E-05
   0.76750   0.85820075E-05
   0.76850   0.10725721E-04
   0.76950   0.13536302E-04
   0.77050   0.17273240E-04
   0.77150   0.22322480E-04
   0.77250   0.29273540E-04
   0.77350   0.39055474E-04
   0.77450   0.53187821E-04
   0.77550   0.74270130E-04
   0.77650   0.10700338E-03
   0.77750   0.16050891E-03
   0.77850   0.25419792E-03
   0.77950   0.43497130E-03
   0.78050   0.83932973E-03
   0.78150   0.20042383E-02
   0.78250   0.76936618E-02
   0.78350   0.90615824E-01
   0.78450   0.15705496E-01
   0.78550   0.79183750E-01
   0.78650   0.31838503E-01
   0.78750   0.88517955E-02
   0.78850   0.70132618E-02
   0.78950   0.10842920E-01
   0.79050   0.31495083E-01
   0.79150   0.72186284E-01
   0.79250   0.15888289E-01
   0.79350   0.68790764E-02
   0.79450   0.48753470E-02
   0.79550   0.48246440E-02
   0.79650   0.10071000E-01
   0.79750   0.16229829E-01
   0.79850   0.87847829E-01
   0.79950   0.67587331E-01
   0.80050   0.29761389E+00
   0.80150   0.18655105E+00
   0.80250   0.45301989E+00
   0.80350   0.69126952E+00
   0.80450   0.74637693E+00
   0.80550   0.64350116E+00
   0.80650   0.55508161E+00
   0.80750   0.40164009E+00
   0.80850   0.33768576E+00
   0.80950   0.35408744E+00
   0.81050   0.25719410E+00
   0.81150   0.19862641E+00
   0.81250   0.30445826E+00
   0.81350   0.51280862E+00
   0.81450   0.49769464E+00
   0.81550   0.46883127E+00
   0.81650   0.50290042E+00
   0.81750   0.61575097E+00
   0.81850   0.58321905E+00
   0.81950   0.42431992E+00
   0.82050   0.32007200E+00
   0.82150   0.26647756E+00
   0.82250   0.32222521E+00
   0.82350   0.33208376E+00
   0.82450   0.36540124E+00
   0.82550   0.29444301E+00
   0.82650   0.27419332E+00
   0.82750   0.32788929E+00
   0.82850   0.48106304E+00
   0.82950   0.53876907E+00
   0.83050   0.49726036E+00
   0.83150   0.56002456E+00
   0.83250   0.54702175E+00
   0.83350   0.55994147E+00
   0.83450   0.59164894E+00
   0.83550   0.57842642E+00
   0.83650   0.63031143E+00
   0.83750   0.74726945E+00
   0.83850   0.81661171E+00
   0.83950   0.84800088E+00
   0.84050   0.85478938E+00
   0.84150   0.96555948E+00
   0.84250   0.11774234E+01
   0.84350   0.10401459E+01
   0.84450   0.98815203E+00
   0.84550   0.93689048E+00
   0.84650   0.82925588E+00
   0.84750   0.69810939E+00
   0.84850   0.61134529E+00
   0.84950   0.72765899E+00
   0.85050   0.69223052E+00
   0.85150   0.65051919E+00
   0.85250   0.64007789E+00
   0.85350   0.58788210E+00
   0.85450   0.59925973E+00
   0.85550   0.59170669E+00
   0.85650   0.55060703E+00
   0.85750   0.63641143E+00
   0.85850   0.68767905E+00
   0.85950   0.86451435E+00
   0.86050   0.94805479E+00
   0.86150   0.76590139E+00
   0.86250   0.69337648E+00
   0.86350   0.60231090E+00
   0.86450   0.61951387E+00
   0.86550   0.53043997E+00
   0.86650   0.32021710E+00
   0.86750   0.18223919E+00
   0.86850   0.13913178E+00
   0.86950   0.94608665E-01
   0.87050   0.11153283E+00
   0.87150   0.11077983E+00
   0.87250   0.58488339E-01
   0.87350   0.57733487E-01
   0.87450   0.48126001E-01
   0.87550   0.41972551E-01
   0.87650   0.37755035E-01
   0.87750   0.32643687E-01
   0.87850   0.27302621E-01
   0.87950   0.23920625E-01
   0.88050   0.23665929E-01
   0.88150   0.27214510E-01
   0.88250   0.32149397E-01
   0.88350   0.33953767E-01
   0.88450   0.30421635E-01
   0.88550   0.22047337E-01
   0.88650   0.23382392E-01
   0.88750   0.27888710E-01
   0.88850   0.33372350E-01
   0.88950   0.38695838E-01
   0.89050   0.42794604E-01
   0.89150   0.45114558E-01
   0.89250   0.45852091E-01
   0.89350   0.45656886E-01
   0.89450   0.45204345E-01
   0.89550   0.44984870E-01
   0.89650   0.45296390E-01
   0.89750   0.46315059E-01
   0.89850   0.48173137E-01
   0.89950   0.51030282E-01
   0.90050   0.55157501E-01
   0.90150   0.60983349E-01
   0.90250   0.69037750E-01
   0.90350   0.80234349E-01
   0.90450   0.96081235E-01
   0.90550   0.11869355E+00
   0.90650   0.15026695E+00
   0.90750   0.19045925E+00
   0.90850   0.22886683E+00
   0.90950   0.23925266E+00
   0.91050   0.20540050E+00
   0.91150   0.15082312E+00
   0.91250   0.10348638E+00
   0.91350   0.70249774E-01
   0.91450   0.48360601E-01
   0.91550   0.34103222E-01
   0.91650   0.24684934E-01
   0.91750   0.18310208E-01
   0.91850   0.13880257E-01
   0.91950   0.10722937E-01
   0.92050   0.84197149E-02
   0.92150   0.67041502E-02
   0.92250   0.54028025E-02
   0.92350   0.44002156E-02
   0.92450   0.36177365E-02
   0.92550   0.30004901E-02
   0.92650   0.25092766E-02
   0.92750   0.21154666E-02
   0.92850   0.17977334E-02
   0.92950   0.15399200E-02
   0.93050   0.13296102E-02
   0.93150   0.11571492E-02
   0.93250   0.10149562E-02
   0.93350   0.89703256E-03
   0.93450   0.79860463E-03
   0.93550   0.71586011E-03
   0.93650   0.64575108E-03
   0.93750   0.58584427E-03
   0.93850   0.53420576E-03
   0.93950   0.48930937E-03
   0.94050   0.44996350E-03
   0.94150   0.41525104E-03
   0.94250   0.38447892E-03
   0.94350   0.35713729E-03
   0.94450   0.33288755E-03
   0.94550   0.31163785E-03
   0.94650   0.29333372E-03
   0.94750   0.27786929E-03
   0.94850   0.26522783E-03
   0.94950   0.25544348E-03
   0.95050   0.24857308E-03
   0.95150   0.24468073E-03
   0.95250   0.24382770E-03
   0.95350   0.24606800E-03
   0.95450   0.25145538E-03
   0.95550   0.26009075E-03
   0.95650   0.27205586E-03
   0.95750   0.28723842E-03
   0.95850   0.30559790E-03
   0.95950   0.32712822E-03
   0.96050   0.35181869E-03
   0.96150   0.37965208E-03
   0.96250   0.41060479E-03
   0.96350   0.44464698E-03
   0.96450   0.48174232E-03
   0.96550   0.52184914E-03
   0.96650   0.56492398E-03
   0.96750   0.61092922E-03
   0.96850   0.65984431E-03
   0.96950   0.71168086E-03
   0.97050   0.76649874E-03
   0.97150   0.82441850E-03
   0.97250   0.88562001E-03
   0.97350   0.95030322E-03
   0.97450   0.10185599E-02
   0.97550   0.10906588E-02
   0.97650   0.11700221E-02
   0.97750   0.12597081E-02
   0.97850   0.13606773E-02
   0.97950   0.14743368E-02
   0.98050   0.16027028E-02
   0.98150   0.17483507E-02
   0.98250   0.19142977E-02
   0.98350   0.21036586E-02
   0.98450   0.23189452E-02
   0.98550   0.25610013E-02
   0.98650   0.28278567E-02
   0.98750   0.31141345E-02
   0.98850   0.34115983E-02
   0.98950   0.37104175E-02
   0.99050   0.40045399E-02
   0.99150   0.42953626E-02
   0.99250   0.45899805E-02
   0.99350   0.48991945E-02
   0.99450   0.52209212E-02
   0.99550   0.55469740E-02
   0.99650   0.58904393E-02
   0.99750   0.62620076E-02
   0.99850   0.66684615E-02
   0.99950   0.71143089E-02
