# Transmission, k-averaged
# Date: 2021-05-13
#   E [eV]           T [G0]
   0.00050   0.29506186E+00
   0.00150   0.57720788E-01
   0.00250   0.22278581E-01
   0.00350   0.15571326E-01
   0.00450   0.68145409E-01
   0.00550   0.71599437E-02
   0.00650   0.30568425E-01
   0.00750   0.93362043E-02
   0.00850   0.56182249E-02
   0.00950   0.49409401E-01
   0.01050   0.90105254E-02
   0.01150   0.39256541E-02
   0.01250   0.76852343E-02
   0.01350   0.84492870E-01
   0.01450   0.62847971E-02
   0.01550   0.29429686E-02
   0.01650   0.37646259E-02
   0.01750   0.17405365E-01
   0.01850   0.23469269E-01
   0.01950   0.35532513E-02
   0.02050   0.20334041E-02
   0.02150   0.23844657E-02
   0.02250   0.65046293E-02
   0.02350   0.82647160E-01
   0.02450   0.62985006E-02
   0.02550   0.23438714E-02
   0.02650   0.18875531E-02
   0.02750   0.26396241E-02
   0.02850   0.72867163E-02
   0.02950   0.71231395E-01
   0.03050   0.15017934E-01
   0.03150   0.51479219E-02
   0.03250   0.37555159E-02
   0.03350   0.43176054E-02
   0.03450   0.75840484E-02
   0.03550   0.23205554E-01
   0.03650   0.74445270E-01
   0.03750   0.25100917E-01
   0.03850   0.11721233E-01
   0.03950   0.89472868E-02
   0.04050   0.96671972E-02
   0.04150   0.14221244E-01
   0.04250   0.27969884E-01
   0.04350   0.49867246E-01
   0.04450   0.33298504E-01
   0.04550   0.17737115E-01
   0.04650   0.12573794E-01
   0.04750   0.10958840E-01
   0.04850   0.10801628E-01
   0.04950   0.11354839E-01
   0.05050   0.12032994E-01
   0.05150   0.12220525E-01
   0.05250   0.11623393E-01
   0.05350   0.10511328E-01
   0.05450   0.93496414E-02
   0.05550   0.84162494E-02
   0.05650   0.77799228E-02
   0.05750   0.74066157E-02
   0.05850   0.72272811E-02
   0.05950   0.71618436E-02
   0.06050   0.71283723E-02
   0.06150   0.70559345E-02
   0.06250   0.69027729E-02
   0.06350   0.66672591E-02
   0.06450   0.63804039E-02
   0.06550   0.60851667E-02
   0.06650   0.58177188E-02
   0.06750   0.55991015E-02
   0.06850   0.54354453E-02
   0.06950   0.53216736E-02
   0.07050   0.52455245E-02
   0.07150   0.51911310E-02
   0.07250   0.51424219E-02
   0.07350   0.50864192E-02
   0.07450   0.50158571E-02
   0.07550   0.49302154E-02
   0.07650   0.48347479E-02
   0.07750   0.47380314E-02
   0.07850   0.46491739E-02
   0.07950   0.45756516E-02
   0.08050   0.45221541E-02
   0.08150   0.44903168E-02
   0.08250   0.44790232E-02
   0.08350   0.44850470E-02
   0.08450   0.45039067E-02
   0.08550   0.45308797E-02
   0.08650   0.45620711E-02
   0.08750   0.45953253E-02
   0.08850   0.46305899E-02
   0.08950   0.46688202E-02
   0.09050   0.47054463E-02
   0.09150   0.46947268E-02
   0.09250   0.44768387E-02
   0.09350   0.41221608E-02
   0.09450   0.38059910E-02
   0.09550   0.35421383E-02
   0.09650   0.33178939E-02
   0.09750   0.31224671E-02
   0.09850   0.29484744E-02
   0.09950   0.27911148E-02
   0.10050   0.26473724E-02
   0.10150   0.25154029E-02
   0.10250   0.23940697E-02
   0.10350   0.22826043E-02
   0.10450   0.21803766E-02
   0.10550   0.20867561E-02
   0.10650   0.20010490E-02
   0.10750   0.19224876E-02
   0.10850   0.18502526E-02
   0.10950   0.17835146E-02
   0.11050   0.17214811E-02
   0.11150   0.16634387E-02
   0.11250   0.16087854E-02
   0.11350   0.15570490E-02
   0.11450   0.15078892E-02
   0.11550   0.14610867E-02
   0.11650   0.14165187E-02
   0.11750   0.13741301E-02
   0.11850   0.13339025E-02
   0.11950   0.12958252E-02
   0.12050   0.12598737E-02
   0.12150   0.12259955E-02
   0.12250   0.11941034E-02
   0.12350   0.11640774E-02
   0.12450   0.11357710E-02
   0.12550   0.11090221E-02
   0.12650   0.10836644E-02
   0.12750   0.10595408E-02
   0.12850   0.10365123E-02
   0.12950   0.10144666E-02
   0.13050   0.99332049E-03
   0.13150   0.97302097E-03
   0.13250   0.95354073E-03
   0.13350   0.93487278E-03
   0.13450   0.91702252E-03
   0.13550   0.90000010E-03
   0.13650   0.88381296E-03
   0.13750   0.86846057E-03
   0.13850   0.85393037E-03
   0.13950   0.84019679E-03
   0.14050   0.82722178E-03
   0.14150   0.81495719E-03
   0.14250   0.80334878E-03
   0.14350   0.79234067E-03
   0.14450   0.78187959E-03
   0.14550   0.77191944E-03
   0.14650   0.76242414E-03
   0.14750   0.75336947E-03
   0.14850   0.74474339E-03
   0.14950   0.73654531E-03
   0.15050   0.72878331E-03
   0.15150   0.72147173E-03
   0.15250   0.71462715E-03
   0.15350   0.70826529E-03
   0.15450   0.70239778E-03
   0.15550   0.69703028E-03
   0.15650   0.69216074E-03
   0.15750   0.68777957E-03
   0.15850   0.68387034E-03
   0.15950   0.68041129E-03
   0.16050   0.67737757E-03
   0.16150   0.67474379E-03
   0.16250   0.67248638E-03
   0.16350   0.67058502E-03
   0.16450   0.66902378E-03
   0.16550   0.66778972E-03
   0.16650   0.66686986E-03
   0.16750   0.66624442E-03
   0.16850   0.66587428E-03
   0.16950   0.66567771E-03
   0.17050   0.66548417E-03
   0.17150   0.66493184E-03
   0.17250   0.66320651E-03
   0.17350   0.65824814E-03
   0.17450   0.64382143E-03
   0.17550   0.60095405E-03
   0.17650   0.52725762E-03
   0.17750   0.46447481E-03
   0.17850   0.41745012E-03
   0.17950   0.38096114E-03
   0.18050   0.35156080E-03
   0.18150   0.32719178E-03
   0.18250   0.30656272E-03
   0.18350   0.28881655E-03
   0.18450   0.27335741E-03
   0.18550   0.25975512E-03
   0.18650   0.24768949E-03
   0.18750   0.23691605E-03
   0.18850   0.22724419E-03
   0.18950   0.21852250E-03
   0.19050   0.21062887E-03
   0.19150   0.20346342E-03
   0.19250   0.19694354E-03
   0.19350   0.19100019E-03
   0.19450   0.18557523E-03
   0.19550   0.18061938E-03
   0.19650   0.17609063E-03
   0.19750   0.17195310E-03
   0.19850   0.16817600E-03
   0.19950   0.16473298E-03
   0.20050   0.16160142E-03
   0.20150   0.15876196E-03
   0.20250   0.15619809E-03
   0.20350   0.15389569E-03
   0.20450   0.15184282E-03
   0.20550   0.15002939E-03
   0.20650   0.14844697E-03
   0.20750   0.14708861E-03
   0.20850   0.14594875E-03
   0.20950   0.14502316E-03
   0.21050   0.14430893E-03
   0.21150   0.14380475E-03
   0.21250   0.14351137E-03
   0.21350   0.14343292E-03
   0.21450   0.14358049E-03
   0.21550   0.14398423E-03
   0.21650   0.14474444E-03
   0.21750   0.14622659E-03
   0.21850   0.14868479E-03
   0.21950   0.15145374E-03
   0.22050   0.15435253E-03
   0.22150   0.15744253E-03
   0.22250   0.16079542E-03
   0.22350   0.16447954E-03
   0.22450   0.16856560E-03
   0.22550   0.17313324E-03
   0.22650   0.17827784E-03
   0.22750   0.18411908E-03
   0.22850   0.19081299E-03
   0.22950   0.19857024E-03
   0.23050   0.20768444E-03
   0.23150   0.21857300E-03
   0.23250   0.23180153E-03
   0.23350   0.24774068E-03
   0.23450   0.26268471E-03
   0.23550   0.26300692E-03
   0.23650   0.25357655E-03
   0.23750   0.24302176E-03
   0.23850   0.23309683E-03
   0.23950   0.22401576E-03
   0.24050   0.21572200E-03
   0.24150   0.20811778E-03
   0.24250   0.20111066E-03
   0.24350   0.19462196E-03
   0.24450   0.18858646E-03
   0.24550   0.18295030E-03
   0.24650   0.17766880E-03
   0.24750   0.17270471E-03
   0.24850   0.16802675E-03
   0.24950   0.16360854E-03
   0.25050   0.15942773E-03
   0.25150   0.15546528E-03
   0.25250   0.15170495E-03
   0.25350   0.14813282E-03
   0.25450   0.14473700E-03
   0.25550   0.14150723E-03
   0.25650   0.13843476E-03
   0.25750   0.13551202E-03
   0.25850   0.13273257E-03
   0.25950   0.13009091E-03
   0.26050   0.12758232E-03
   0.26150   0.12520282E-03
   0.26250   0.12294912E-03
   0.26350   0.12081845E-03
   0.26450   0.11880861E-03
   0.26550   0.11691784E-03
   0.26650   0.11514479E-03
   0.26750   0.11348852E-03
   0.26850   0.11194844E-03
   0.26950   0.11052422E-03
   0.27050   0.10921583E-03
   0.27150   0.10802350E-03
   0.27250   0.10694766E-03
   0.27350   0.10598893E-03
   0.27450   0.10514819E-03
   0.27550   0.10442647E-03
   0.27650   0.10382508E-03
   0.27750   0.10334556E-03
   0.27850   0.10298982E-03
   0.27950   0.10276013E-03
   0.28050   0.10265932E-03
   0.28150   0.10269081E-03
   0.28250   0.10285886E-03
   0.28350   0.10316870E-03
   0.28450   0.10362679E-03
   0.28550   0.10424110E-03
   0.28650   0.10502145E-03
   0.28750   0.10597988E-03
   0.28850   0.10713123E-03
   0.28950   0.10849364E-03
   0.29050   0.11008930E-03
   0.29150   0.11194511E-03
   0.29250   0.11409321E-03
   0.29350   0.11657044E-03
   0.29450   0.11941413E-03
   0.29550   0.12264462E-03
   0.29650   0.12619502E-03
   0.29750   0.12959071E-03
   0.29850   0.13033333E-03
   0.29950   0.12266557E-03
   0.30050   0.11175389E-03
   0.30150   0.10289911E-03
   0.30250   0.96092692E-04
   0.30350   0.90838977E-04
   0.30450   0.86790867E-04
   0.30550   0.83732979E-04
   0.30650   0.81540034E-04
   0.30750   0.80152429E-04
   0.30850   0.79565601E-04
   0.30950   0.79829755E-04
   0.31050   0.81059370E-04
   0.31150   0.83455045E-04
   0.31250   0.87344393E-04
   0.31350   0.93255840E-04
   0.31450   0.10205337E-03
   0.31550   0.11518851E-03
   0.31650   0.13518147E-03
   0.31750   0.16652765E-03
   0.31850   0.21716648E-03
   0.31950   0.29901011E-03
   0.32050   0.41564202E-03
   0.32150   0.50496293E-03
   0.32250   0.44381715E-03
   0.32350   0.30234404E-03
   0.32450   0.19853009E-03
   0.32550   0.13840556E-03
   0.32650   0.10392256E-03
   0.32750   0.83295861E-04
   0.32850   0.70368267E-04
   0.32950   0.61941246E-04
   0.33050   0.56286222E-04
   0.33150   0.52423871E-04
   0.33250   0.49774029E-04
   0.33350   0.47979211E-04
   0.33450   0.46811689E-04
   0.33550   0.46122397E-04
   0.33650   0.45811725E-04
   0.33750   0.45812205E-04
   0.33850   0.46077956E-04
   0.33950   0.46578058E-04
   0.34050   0.47292317E-04
   0.34150   0.48208520E-04
   0.34250   0.49320686E-04
   0.34350   0.50627947E-04
   0.34450   0.52133928E-04
   0.34550   0.53846568E-04
   0.34650   0.55778284E-04
   0.34750   0.57946654E-04
   0.34850   0.60375718E-04
   0.34950   0.63098334E-04
   0.35050   0.66160144E-04
   0.35150   0.69626491E-04
   0.35250   0.73594529E-04
   0.35350   0.78215009E-04
   0.35450   0.83732841E-04
   0.35550   0.90565001E-04
   0.35650   0.99456665E-04
   0.35750   0.11180774E-03
   0.35850   0.13038736E-03
   0.35950   0.16093616E-03
   0.36050   0.21486919E-03
   0.36150   0.25114018E-03
   0.36250   0.37896950E-03
   0.36350   0.75367314E-03
   0.36450   0.11330748E-02
   0.36550   0.13897233E-02
   0.36650   0.15088299E-02
   0.36750   0.16530645E-02
   0.36850   0.17723580E-02
   0.36950   0.16280204E-02
   0.37050   0.14621014E-02
   0.37150   0.14162710E-02
   0.37250   0.14601859E-02
   0.37350   0.15518725E-02
   0.37450   0.16564615E-02
   0.37550   0.17532589E-02
   0.37650   0.18455762E-02
   0.37750   0.16086508E-02
   0.37850   0.79668697E-03
   0.37950   0.14942833E-02
   0.38050   0.50619803E-02
   0.38150   0.44483962E-02
   0.38250   0.41642780E-02
   0.38350   0.28325645E-02
   0.38450   0.21841750E-02
   0.38550   0.21325320E-02
   0.38650   0.20197604E-02
   0.38750   0.19285213E-02
   0.38850   0.19535075E-02
   0.38950   0.19433643E-02
   0.39050   0.18443408E-02
   0.39150   0.17647346E-02
   0.39250   0.17556511E-02
   0.39350   0.17655430E-02
   0.39450   0.17295883E-02
   0.39550   0.16581273E-02
   0.39650   0.16018332E-02
   0.39750   0.15899292E-02
   0.39850   0.16156550E-02
   0.39950   0.16461367E-02
   0.40050   0.16508725E-02
   0.40150   0.16296611E-02
   0.40250   0.16070460E-02
   0.40350   0.16074775E-02
   0.40450   0.16412373E-02
   0.40550   0.17028139E-02
   0.40650   0.17751767E-02
   0.40750   0.18399452E-02
   0.40850   0.18903340E-02
   0.40950   0.19359729E-02
   0.41050   0.19954715E-02
   0.41150   0.20849472E-02
   0.41250   0.22070426E-02
   0.41350   0.23236545E-02
   0.41450   0.22790241E-02
   0.41550   0.20558697E-02
   0.41650   0.18437139E-02
   0.41750   0.16761875E-02
   0.41850   0.15461197E-02
   0.41950   0.14442678E-02
   0.42050   0.13626348E-02
   0.42150   0.12947698E-02
   0.42250   0.12358708E-02
   0.42350   0.11827810E-02
   0.42450   0.11337852E-02
   0.42550   0.10881972E-02
   0.42650   0.10458535E-02
   0.42750   0.10066858E-02
   0.42850   0.97047968E-03
   0.42950   0.93681971E-03
   0.43050   0.90515439E-03
   0.43150   0.87490055E-03
   0.43250   0.84553240E-03
   0.43350   0.81662845E-03
   0.43450   0.78787113E-03
   0.43550   0.75900787E-03
   0.43650   0.72979077E-03
   0.43750   0.69991447E-03
   0.43850   0.66896691E-03
   0.43950   0.63639914E-03
   0.44050   0.60151651E-03
   0.44150   0.56349527E-03
   0.44250   0.52144774E-03
   0.44350   0.47460303E-03
   0.44450   0.42275127E-03
   0.44550   0.36723760E-03
   0.44650   0.31286874E-03
   0.44750   0.27056024E-03
   0.44850   0.25804216E-03
   0.44950   0.29209047E-03
   0.45050   0.37141141E-03
   0.45150   0.47033204E-03
   0.45250   0.55785163E-03
   0.45350   0.61725470E-03
   0.45450   0.64638408E-03
   0.45550   0.64925588E-03
   0.45650   0.63045119E-03
   0.45750   0.59353485E-03
   0.45850   0.54163131E-03
   0.45950   0.47885941E-03
   0.46050   0.41171967E-03
   0.46150   0.34924626E-03
   0.46250   0.30086777E-03
   0.46350   0.27269893E-03
   0.46450   0.26511974E-03
   0.46550   0.27366792E-03
   0.46650   0.29203220E-03
   0.46750   0.31461555E-03
   0.46850   0.33757318E-03
   0.46950   0.35873087E-03
   0.47050   0.37709888E-03
   0.47150   0.39239714E-03
   0.47250   0.40471906E-03
   0.47350   0.41432746E-03
   0.47450   0.42154262E-03
   0.47550   0.42668634E-03
   0.47650   0.43005729E-03
   0.47750   0.43192235E-03
   0.47850   0.43251595E-03
   0.47950   0.43204214E-03
   0.48050   0.43067764E-03
   0.48150   0.42857480E-03
   0.48250   0.42586360E-03
   0.48350   0.42265389E-03
   0.48450   0.41903692E-03
   0.48550   0.41508776E-03
   0.48650   0.41086751E-03
   0.48750   0.40642617E-03
   0.48850   0.40180594E-03
   0.48950   0.39704406E-03
   0.49050   0.39217583E-03
   0.49150   0.38723680E-03
   0.49250   0.38226470E-03
   0.49350   0.37730197E-03
   0.49450   0.37240310E-03
   0.49550   0.36766106E-03
   0.49650   0.36332093E-03
   0.49750   0.36035746E-03
   0.49850   0.36252139E-03
   0.49950   0.37113894E-03
   0.50050   0.38131591E-03
   0.50150   0.39195979E-03
   0.50250   0.40327024E-03
   0.50350   0.41553486E-03
   0.50450   0.42902501E-03
   0.50550   0.44400673E-03
   0.50650   0.46076000E-03
   0.50750   0.47959670E-03
   0.50850   0.50087873E-03
   0.50950   0.52503881E-03
   0.51050   0.55260694E-03
   0.51150   0.58425154E-03
   0.51250   0.62085612E-03
   0.51350   0.66371309E-03
   0.51450   0.71519759E-03
   0.51550   0.78190694E-03
   0.51650   0.88222057E-03
   0.51750   0.10014697E-02
   0.51850   0.14409842E-02
   0.51950   0.31188731E-02
   0.52050   0.26289895E-02
   0.52150   0.21104754E-02
   0.52250   0.17707330E-02
   0.52350   0.15631934E-02
   0.52450   0.14422945E-02
   0.52550   0.14182945E-02
   0.52650   0.22472620E-02
   0.52750   0.25956703E-02
   0.52850   0.18283372E-02
   0.52950   0.31838936E-02
   0.53050   0.25808299E-02
   0.53150   0.29834211E-02
   0.53250   0.10870688E-01
   0.53350   0.11485245E-01
   0.53450   0.93252687E-02
   0.53550   0.10831472E-01
   0.53650   0.91032507E-02
   0.53750   0.82168486E-02
   0.53850   0.76791304E-02
   0.53950   0.67656795E-02
   0.54050   0.57006874E-02
   0.54150   0.49213697E-02
   0.54250   0.43544909E-02
   0.54350   0.38061980E-02
   0.54450   0.32260539E-02
   0.54550   0.27109801E-02
   0.54650   0.23216414E-02
   0.54750   0.20324835E-02
   0.54850   0.17941297E-02
   0.54950   0.15826572E-02
   0.55050   0.14050147E-02
   0.55150   0.12732437E-02
   0.55250   0.11876725E-02
   0.55350   0.11379295E-02
   0.55450   0.11096206E-02
   0.55550   0.10913365E-02
   0.55650   0.10791919E-02
   0.55750   0.10755626E-02
   0.55850   0.10838741E-02
   0.55950   0.11047294E-02
   0.56050   0.11353610E-02
   0.56150   0.11711518E-02
   0.56250   0.12077343E-02
   0.56350   0.12426501E-02
   0.56450   0.12758116E-02
   0.56550   0.13086470E-02
   0.56650   0.13426500E-02
   0.56750   0.13782772E-02
   0.56850   0.14146548E-02
   0.56950   0.14500009E-02
   0.57050   0.14824098E-02
   0.57150   0.15106016E-02
   0.57250   0.15343173E-02
   0.57350   0.15542329E-02
   0.57450   0.15715058E-02
   0.57550   0.15872194E-02
   0.57650   0.16019699E-02
   0.57750   0.16157147E-02
   0.57850   0.16278725E-02
   0.57950   0.16375927E-02
   0.58050   0.16440811E-02
   0.58150   0.16468674E-02
   0.58250   0.16459360E-02
   0.58350   0.16416922E-02
   0.58450   0.16348024E-02
   0.58550   0.16259871E-02
   0.58650   0.16158425E-02
   0.58750   0.16047367E-02
   0.58850   0.15927945E-02
   0.58950   0.15799508E-02
   0.59050   0.15660442E-02
   0.59150   0.15509179E-02
   0.59250   0.15344992E-02
   0.59350   0.15168414E-02
   0.59450   0.14981203E-02
   0.59550   0.14785997E-02
   0.59650   0.14585786E-02
   0.59750   0.14383401E-02
   0.59850   0.14181169E-02
   0.59950   0.13980764E-02
   0.60050   0.13783256E-02
   0.60150   0.13589283E-02
   0.60250   0.13399281E-02
   0.60350   0.13213685E-02
   0.60450   0.13033063E-02
   0.60550   0.12858157E-02
   0.60650   0.12689850E-02
   0.60750   0.12529079E-02
   0.60850   0.12376765E-02
   0.60950   0.12233747E-02
   0.61050   0.12100793E-02
   0.61150   0.11978629E-02
   0.61250   0.11868008E-02
   0.61350   0.11769696E-02
   0.61450   0.11684229E-02
   0.61550   0.11610691E-02
   0.61650   0.11541276E-02
   0.61750   0.11434726E-02
   0.61850   0.11184639E-02
   0.61950   0.10892655E-02
   0.62050   0.10692958E-02
   0.62150   0.10612969E-02
   0.62250   0.10723752E-02
   0.62350   0.10979610E-02
   0.62450   0.11230782E-02
   0.62550   0.11477321E-02
   0.62650   0.11746751E-02
   0.62750   0.12073629E-02
   0.62850   0.12526294E-02
   0.62950   0.13323305E-02
   0.63050   0.15589966E-02
   0.63150   0.23129857E-02
   0.63250   0.22579241E-02
   0.63350   0.26708134E-02
   0.63450   0.17837672E-02
   0.63550   0.16715049E-02
   0.63650   0.17526121E-02
   0.63750   0.19006660E-02
   0.63850   0.21170957E-02
   0.63950   0.24450189E-02
   0.64050   0.30359437E-02
   0.64150   0.43892129E-02
   0.64250   0.59727374E-02
   0.64350   0.10181588E-01
   0.64450   0.13281241E-01
   0.64550   0.17218772E-01
   0.64650   0.13126216E-01
   0.64750   0.95831538E-02
   0.64850   0.77443225E-02
   0.64950   0.77666827E-02
   0.65050   0.82694301E-02
   0.65150   0.90573924E-02
   0.65250   0.92880139E-02
   0.65350   0.76545551E-02
   0.65450   0.61267642E-02
   0.65550   0.56160507E-02
   0.65650   0.58015995E-02
   0.65750   0.61479257E-02
   0.65850   0.60430719E-02
   0.65950   0.54825544E-02
   0.66050   0.50237705E-02
   0.66150   0.48987004E-02
   0.66250   0.49977857E-02
   0.66350   0.51016295E-02
   0.66450   0.50230590E-02
   0.66550   0.47609136E-02
   0.66650   0.44764490E-02
   0.66750   0.43028221E-02
   0.66850   0.42607756E-02
   0.66950   0.42944183E-02
   0.67050   0.43234359E-02
   0.67150   0.42852350E-02
   0.67250   0.41658571E-02
   0.67350   0.40002177E-02
   0.67450   0.38391778E-02
   0.67550   0.37170839E-02
   0.67650   0.36427055E-02
   0.67750   0.36064666E-02
   0.67850   0.35908972E-02
   0.67950   0.35787732E-02
   0.68050   0.35582269E-02
   0.68150   0.35248613E-02
   0.68250   0.34808377E-02
   0.68350   0.34318294E-02
   0.68450   0.33836388E-02
   0.68550   0.33388410E-02
   0.68650   0.32871095E-02
   0.68750   0.31844776E-02
   0.68850   0.30545930E-02
   0.68950   0.29557995E-02
   0.69050   0.28866665E-02
   0.69150   0.28375548E-02
   0.69250   0.28010185E-02
   0.69350   0.27721685E-02
   0.69450   0.27483993E-02
   0.69550   0.27289486E-02
   0.69650   0.27142647E-02
   0.69750   0.27052960E-02
   0.69850   0.27028734E-02
   0.69950   0.27073093E-02
   0.70050   0.27182419E-02
   0.70150   0.27346541E-02
   0.70250   0.27548822E-02
   0.70350   0.27760377E-02
   0.70450   0.27903575E-02
   0.70550   0.27755813E-02
   0.70650   0.27384900E-02
   0.70750   0.27134663E-02
   0.70850   0.27026697E-02
   0.70950   0.27026378E-02
   0.71050   0.27107883E-02
   0.71150   0.27253835E-02
   0.71250   0.27453045E-02
   0.71350   0.27699650E-02
   0.71450   0.27993089E-02
   0.71550   0.28339042E-02
   0.71650   0.28752699E-02
   0.71750   0.29269941E-02
   0.71850   0.29990133E-02
   0.71950   0.31286508E-02
   0.72050   0.34664345E-02
   0.72150   0.32727499E-02
   0.72250   0.31288227E-02
   0.72350   0.31626830E-02
   0.72450   0.32256644E-02
   0.72550   0.32998654E-02
   0.72650   0.33838430E-02
   0.72750   0.34815525E-02
   0.72850   0.36058989E-02
   0.72950   0.37996164E-02
   0.73050   0.41880128E-02
   0.73150   0.46646474E-02
   0.73250   0.48463154E-02
   0.73350   0.50938656E-02
   0.73450   0.54476657E-02
   0.73550   0.59778038E-02
   0.73650   0.68895309E-02
   0.73750   0.86546112E-02
   0.73850   0.12321366E-01
   0.73950   0.21065604E-01
   0.74050   0.19174980E-01
   0.74150   0.15753550E-01
   0.74250   0.16937582E-01
   0.74350   0.12734004E-01
   0.74450   0.11224125E-01
   0.74550   0.11924367E-01
   0.74650   0.13426679E-01
   0.74750   0.14659668E-01
   0.74850   0.15672419E-01
   0.74950   0.17242087E-01
   0.75050   0.18748064E-01
   0.75150   0.18354181E-01
   0.75250   0.17997732E-01
   0.75350   0.19030536E-01
   0.75450   0.19447435E-01
   0.75550   0.18409153E-01
   0.75650   0.17629590E-01
   0.75750   0.17841531E-01
   0.75850   0.18753417E-01
   0.75950   0.19541636E-01
   0.76050   0.19362027E-01
   0.76150   0.18343845E-01
   0.76250   0.17265942E-01
   0.76350   0.16584182E-01
   0.76450   0.16354220E-01
   0.76550   0.16486054E-01
   0.76650   0.16871512E-01
   0.76750   0.17402431E-01
   0.76850   0.17945746E-01
   0.76950   0.18346606E-01
   0.77050   0.18510334E-01
   0.77150   0.18473366E-01
   0.77250   0.18339422E-01
   0.77350   0.18169081E-01
   0.77450   0.17962882E-01
   0.77550   0.17714206E-01
   0.77650   0.17444296E-01
   0.77750   0.17194860E-01
   0.77850   0.17006338E-01
   0.77950   0.16905067E-01
   0.78050   0.16901210E-01
   0.78150   0.16988516E-01
   0.78250   0.17132312E-01
   0.78350   0.17298551E-01
   0.78450   0.17456450E-01
   0.78550   0.17565554E-01
   0.78650   0.17606908E-01
   0.78750   0.17587511E-01
   0.78850   0.17529821E-01
   0.78950   0.17459441E-01
   0.79050   0.17398065E-01
   0.79150   0.17362632E-01
   0.79250   0.17370224E-01
   0.79350   0.17453177E-01
   0.79450   0.17703358E-01
   0.79550   0.18038277E-01
   0.79650   0.17371599E-01
   0.79750   0.17116597E-01
   0.79850   0.17077809E-01
   0.79950   0.17069962E-01
   0.80050   0.17058652E-01
   0.80150   0.17035626E-01
   0.80250   0.16999155E-01
   0.80350   0.16950427E-01
   0.80450   0.16892808E-01
   0.80550   0.16831806E-01
   0.80650   0.16775474E-01
   0.80750   0.16735444E-01
   0.80850   0.16729373E-01
   0.80950   0.16786298E-01
   0.81050   0.16957594E-01
   0.81150   0.17334392E-01
   0.81250   0.18039132E-01
   0.81350   0.18997997E-01
   0.81450   0.19471720E-01
   0.81550   0.19068705E-01
   0.81650   0.18567687E-01
   0.81750   0.18449038E-01
   0.81850   0.18801486E-01
   0.81950   0.19675128E-01
   0.82050   0.21093300E-01
   0.82150   0.22932975E-01
   0.82250   0.25188299E-01
   0.82350   0.27798604E-01
   0.82450   0.27845919E-01
   0.82550   0.25992960E-01
   0.82650   0.25247792E-01
   0.82750   0.25315486E-01
   0.82850   0.25774889E-01
   0.82950   0.26522469E-01
   0.83050   0.27507320E-01
   0.83150   0.28647004E-01
   0.83250   0.29902065E-01
   0.83350   0.31616040E-01
   0.83450   0.34762807E-01
   0.83550   0.40424552E-01
   0.83650   0.44331368E-01
   0.83750   0.41699700E-01
   0.83850   0.41487072E-01
   0.83950   0.44550482E-01
   0.84050   0.48436023E-01
   0.84150   0.50205123E-01
   0.84250   0.49362428E-01
   0.84350   0.47624331E-01
   0.84450   0.46330616E-01
   0.84550   0.46208896E-01
   0.84650   0.47230970E-01
   0.84750   0.49182095E-01
   0.84850   0.51645044E-01
   0.84950   0.54031465E-01
   0.85050   0.55819254E-01
   0.85150   0.56861661E-01
   0.85250   0.57528369E-01
   0.85350   0.58393076E-01
   0.85450   0.59969347E-01
   0.85550   0.62764429E-01
   0.85650   0.67194872E-01
   0.85750   0.71187399E-01
   0.85850   0.70619725E-01
   0.85950   0.70138350E-01
   0.86050   0.72031215E-01
   0.86150   0.75543933E-01
   0.86250   0.80178529E-01
   0.86350   0.85696541E-01
   0.86450   0.91851629E-01
   0.86550   0.98197684E-01
   0.86650   0.10398863E+00
   0.86750   0.10830754E+00
   0.86850   0.11050879E+00
   0.86950   0.11067181E+00
   0.87050   0.10956791E+00
   0.87150   0.10817251E+00
   0.87250   0.10724869E+00
   0.87350   0.10729153E+00
   0.87450   0.10880540E+00
   0.87550   0.11289564E+00
   0.87650   0.10349739E+00
   0.87750   0.10874233E+00
   0.87850   0.11222398E+00
   0.87950   0.11434404E+00
   0.88050   0.11509720E+00
   0.88150   0.11461078E+00
   0.88250   0.11324300E+00
   0.88350   0.11137287E+00
   0.88450   0.10919696E+00
   0.88550   0.10665647E+00
   0.88650   0.10364853E+00
   0.88750   0.10117216E+00
   0.88850   0.10144460E+00
   0.88950   0.10382541E+00
   0.89050   0.10649929E+00
   0.89150   0.10897548E+00
   0.89250   0.11129110E+00
   0.89350   0.11351847E+00
   0.89450   0.11561406E+00
   0.89550   0.11728613E+00
   0.89650   0.11811478E+00
   0.89750   0.11822982E+00
   0.89850   0.11820757E+00
   0.89950   0.11821611E+00
   0.90050   0.12012551E+00
   0.90150   0.12657598E+00
   0.90250   0.13458189E+00
   0.90350   0.14213486E+00
   0.90450   0.14837302E+00
   0.90550   0.15289626E+00
   0.90650   0.15738328E+00
   0.90750   0.16370796E+00
   0.90850   0.17277519E+00
   0.90950   0.18472780E+00
   0.91050   0.19587988E+00
   0.91150   0.19822516E+00
   0.91250   0.19577171E+00
   0.91350   0.19538860E+00
   0.91450   0.19643486E+00
   0.91550   0.19733754E+00
   0.91650   0.19802786E+00
   0.91750   0.19910882E+00
   0.91850   0.20092258E+00
   0.91950   0.20349169E+00
   0.92050   0.20671831E+00
   0.92150   0.21047901E+00
   0.92250   0.21462564E+00
   0.92350   0.21893118E+00
   0.92450   0.22302352E+00
   0.92550   0.22734998E+00
   0.92650   0.23710871E+00
   0.92750   0.24723457E+00
   0.92850   0.25481752E+00
   0.92950   0.26197532E+00
   0.93050   0.26933643E+00
   0.93150   0.27707532E+00
   0.93250   0.28522676E+00
   0.93350   0.29375389E+00
   0.93450   0.30261934E+00
   0.93550   0.31187263E+00
   0.93650   0.32169169E+00
   0.93750   0.33226177E+00
   0.93850   0.34329337E+00
   0.93950   0.35347846E+00
   0.94050   0.36167654E+00
   0.94150   0.36875027E+00
   0.94250   0.37617436E+00
   0.94350   0.38454139E+00
   0.94450   0.39386070E+00
   0.94550   0.40442884E+00
   0.94650   0.41643116E+00
   0.94750   0.42943096E+00
   0.94850   0.44312111E+00
   0.94950   0.45729974E+00
   0.95050   0.47181883E+00
   0.95150   0.48659518E+00
   0.95250   0.50167054E+00
   0.95350   0.51735866E+00
   0.95450   0.53467184E+00
   0.95550   0.55632418E+00
   0.95650   0.58264709E+00
   0.95750   0.60937238E+00
   0.95850   0.63616371E+00
   0.95950   0.66381371E+00
   0.96050   0.69308895E+00
   0.96150   0.72467303E+00
   0.96250   0.75916451E+00
   0.96350   0.79704714E+00
   0.96450   0.83859551E+00
   0.96550   0.88366342E+00
   0.96650   0.93134022E+00
   0.96750   0.97973174E+00
   0.96850   0.10265986E+01
   0.96950   0.10711613E+01
   0.97050   0.11151224E+01
   0.97150   0.11607444E+01
   0.97250   0.12077049E+01
   0.97350   0.12511829E+01
   0.97450   0.12820734E+01
   0.97550   0.12941055E+01
   0.97650   0.12940215E+01
   0.97750   0.12906502E+01
   0.97850   0.12905858E+01
   0.97950   0.13036501E+01
   0.98050   0.13320854E+01
   0.98150   0.13640527E+01
   0.98250   0.13948412E+01
   0.98350   0.14288375E+01
   0.98450   0.14726603E+01
   0.98550   0.15319654E+01
   0.98650   0.16040229E+01
   0.98750   0.16764437E+01
   0.98850   0.17466260E+01
   0.98950   0.18222636E+01
   0.99050   0.18963141E+01
   0.99150   0.19661781E+01
   0.99250   0.20313337E+01
   0.99350   0.20900126E+01
   0.99450   0.21411171E+01
   0.99550   0.21847715E+01
   0.99650   0.22211754E+01
   0.99750   0.22513490E+01
   0.99850   0.22786977E+01
   0.99950   0.23100948E+01
