# Transmission, k-averaged
# Date: 2021-05-13
#   E [eV]           T [G0]
   0.00050   0.14733529E+00
   0.00150   0.35130847E+00
   0.00250   0.28429577E+00
   0.00350   0.23803429E+00
   0.00450   0.22234260E+00
   0.00550   0.19104442E+00
   0.00650   0.14828332E+00
   0.00750   0.43907743E-01
   0.00850   0.64203449E-01
   0.00950   0.42422548E-01
   0.01050   0.36392789E-01
   0.01150   0.23722088E-01
   0.01250   0.54396547E-01
   0.01350   0.11361384E-01
   0.01450   0.36293373E-01
   0.01550   0.19940242E-01
   0.01650   0.72730514E-02
   0.01750   0.22220038E-01
   0.01850   0.24119740E-01
   0.01950   0.50733397E-02
   0.02050   0.57548671E-02
   0.02150   0.46508569E-01
   0.02250   0.95333746E-02
   0.02350   0.30095114E-02
   0.02450   0.33400659E-02
   0.02550   0.16042139E-01
   0.02650   0.14967690E-01
   0.02750   0.25929364E-02
   0.02850   0.17386966E-02
   0.02950   0.27944085E-02
   0.03050   0.20000821E-01
   0.03150   0.94019212E-02
   0.03250   0.20629279E-02
   0.03350   0.13894521E-02
   0.03450   0.18673886E-02
   0.03550   0.61659478E-02
   0.03650   0.45263447E-01
   0.03750   0.40847221E-02
   0.03850   0.17667429E-02
   0.03950   0.15453919E-02
   0.04050   0.23823611E-02
   0.04150   0.84154233E-02
   0.04250   0.36332682E-01
   0.04350   0.47127460E-02
   0.04450   0.20919999E-02
   0.04550   0.17539088E-02
   0.04650   0.21897913E-02
   0.04750   0.36016861E-02
   0.04850   0.56713503E-02
   0.04950   0.44891448E-02
   0.05050   0.25722939E-02
   0.05150   0.17242506E-02
   0.05250   0.14314951E-02
   0.05350   0.14335645E-02
   0.05450   0.16682855E-02
   0.05550   0.21016514E-02
   0.05650   0.24687990E-02
   0.05750   0.23155562E-02
   0.05850   0.18221925E-02
   0.05950   0.14184871E-02
   0.06050   0.11984520E-02
   0.06150   0.11259369E-02
   0.06250   0.11689784E-02
   0.06350   0.13060317E-02
   0.06450   0.14872776E-02
   0.06550   0.15920450E-02
   0.06650   0.15106358E-02
   0.06750   0.13013626E-02
   0.06850   0.10969141E-02
   0.06950   0.95985102E-03
   0.07050   0.89592795E-03
   0.07150   0.89619757E-03
   0.07250   0.95005112E-03
   0.07350   0.10383411E-02
   0.07450   0.11187367E-02
   0.07550   0.11323155E-02
   0.07650   0.10567035E-02
   0.07750   0.93404134E-03
   0.07850   0.81964146E-03
   0.07950   0.74121880E-03
   0.08050   0.70441747E-03
   0.08150   0.70697686E-03
   0.08250   0.74395351E-03
   0.08350   0.80447725E-03
   0.08450   0.86416351E-03
   0.08550   0.88651077E-03
   0.08650   0.84950525E-03
   0.08750   0.77050336E-03
   0.08850   0.68682706E-03
   0.08950   0.62477554E-03
   0.09050   0.59458509E-03
   0.09150   0.59606304E-03
   0.09250   0.60962402E-03
   0.09350   0.61345549E-03
   0.09450   0.60091243E-03
   0.09550   0.56287122E-03
   0.09650   0.50334702E-03
   0.09750   0.43765703E-03
   0.09850   0.37949660E-03
   0.09950   0.33491966E-03
   0.10050   0.30428809E-03
   0.10150   0.28550101E-03
   0.10250   0.27566345E-03
   0.10350   0.27145178E-03
   0.10450   0.26906104E-03
   0.10550   0.26457646E-03
   0.10650   0.25519892E-03
   0.10750   0.24060599E-03
   0.10850   0.22296637E-03
   0.10950   0.20541130E-03
   0.11050   0.19044988E-03
   0.11150   0.17939349E-03
   0.11250   0.17255235E-03
   0.11350   0.16959109E-03
   0.11450   0.16973855E-03
   0.11550   0.17185447E-03
   0.11650   0.17450827E-03
   0.11750   0.17624896E-03
   0.11850   0.17608746E-03
   0.11950   0.17391726E-03
   0.12050   0.17051675E-03
   0.12150   0.16712531E-03
   0.12250   0.16494268E-03
   0.12350   0.16483852E-03
   0.12450   0.16728119E-03
   0.12550   0.17235462E-03
   0.12650   0.17976355E-03
   0.12750   0.18882018E-03
   0.12850   0.19848674E-03
   0.12950   0.20757507E-03
   0.13050   0.21511792E-03
   0.13150   0.22074892E-03
   0.13250   0.22484371E-03
   0.13350   0.22833329E-03
   0.13450   0.23234158E-03
   0.13550   0.23786079E-03
   0.13650   0.24555571E-03
   0.13750   0.25566557E-03
   0.13850   0.26794628E-03
   0.13950   0.28164644E-03
   0.14050   0.29557478E-03
   0.14150   0.30833861E-03
   0.14250   0.31875476E-03
   0.14350   0.32627600E-03
   0.14450   0.33119164E-03
   0.14550   0.33448200E-03
   0.14650   0.33743671E-03
   0.14750   0.34125379E-03
   0.14850   0.34675843E-03
   0.14950   0.35425564E-03
   0.15050   0.36347657E-03
   0.15150   0.37360529E-03
   0.15250   0.38342533E-03
   0.15350   0.39163389E-03
   0.15450   0.39729080E-03
   0.15550   0.40023285E-03
   0.15650   0.40123219E-03
   0.15750   0.40181147E-03
   0.15850   0.40384513E-03
   0.15950   0.40916409E-03
   0.16050   0.41929295E-03
   0.16150   0.43531423E-03
   0.16250   0.45779595E-03
   0.16350   0.48675330E-03
   0.16450   0.52169320E-03
   0.16550   0.56183297E-03
   0.16650   0.60651801E-03
   0.16750   0.65568875E-03
   0.16850   0.71012648E-03
   0.16950   0.77128102E-03
   0.17050   0.84067747E-03
   0.17150   0.91897859E-03
   0.17250   0.10046340E-02
   0.17350   0.10915236E-02
   0.17450   0.11628423E-02
   0.17550   0.11753100E-02
   0.17650   0.11145263E-02
   0.17750   0.10536943E-02
   0.17850   0.10062229E-02
   0.17950   0.96674729E-03
   0.18050   0.93182223E-03
   0.18150   0.89960813E-03
   0.18250   0.86897705E-03
   0.18350   0.83907595E-03
   0.18450   0.80916460E-03
   0.18550   0.77859825E-03
   0.18650   0.74688188E-03
   0.18750   0.71374502E-03
   0.18850   0.67919586E-03
   0.18950   0.64352376E-03
   0.19050   0.60723978E-03
   0.19150   0.57096692E-03
   0.19250   0.53531310E-03
   0.19350   0.50076109E-03
   0.19450   0.46760240E-03
   0.19550   0.43592503E-03
   0.19650   0.40565120E-03
   0.19750   0.37661148E-03
   0.19850   0.34863621E-03
   0.19950   0.32164002E-03
   0.20050   0.29567548E-03
   0.20150   0.27093766E-03
   0.20250   0.24771906E-03
   0.20350   0.22633361E-03
   0.20450   0.20704002E-03
   0.20550   0.18999164E-03
   0.20650   0.17522465E-03
   0.20750   0.16268286E-03
   0.20850   0.15226872E-03
   0.20950   0.14390904E-03
   0.21050   0.13762560E-03
   0.21150   0.13360434E-03
   0.21250   0.13226819E-03
   0.21350   0.13438662E-03
   0.21450   0.14132318E-03
   0.21550   0.15573234E-03
   0.21650   0.18378044E-03
   0.21750   0.23896404E-03
   0.21850   0.31423810E-03
   0.21950   0.38444909E-03
   0.22050   0.45481545E-03
   0.22150   0.53298846E-03
   0.22250   0.62402419E-03
   0.22350   0.73145464E-03
   0.22450   0.85780799E-03
   0.22550   0.10047872E-02
   0.22650   0.11733512E-02
   0.22750   0.13638412E-02
   0.22850   0.15762384E-02
   0.22950   0.18106011E-02
   0.23050   0.20676807E-02
   0.23150   0.23496589E-02
   0.23250   0.26605525E-02
   0.23350   0.30020906E-02
   0.23450   0.33289613E-02
   0.23550   0.34817269E-02
   0.23650   0.35049801E-02
   0.23750   0.34909029E-02
   0.23850   0.34595793E-02
   0.23950   0.34148381E-02
   0.24050   0.33574428E-02
   0.24150   0.32873610E-02
   0.24250   0.32041240E-02
   0.24350   0.31067829E-02
   0.24450   0.29937655E-02
   0.24550   0.28627147E-02
   0.24650   0.27103575E-02
   0.24750   0.25325236E-02
   0.24850   0.23246151E-02
   0.24950   0.20832079E-02
   0.25050   0.18100509E-02
   0.25150   0.15198159E-02
   0.25250   0.12497815E-02
   0.25350   0.10594890E-02
   0.25450   0.10018670E-02
   0.25550   0.10780835E-02
   0.25650   0.12314602E-02
   0.25750   0.13920936E-02
   0.25850   0.15160892E-02
   0.25950   0.15910240E-02
   0.26050   0.16251619E-02
   0.26150   0.16371326E-02
   0.26250   0.16481723E-02
   0.26350   0.16745747E-02
   0.26450   0.17218185E-02
   0.26550   0.17845717E-02
   0.26650   0.18524361E-02
   0.26750   0.19161256E-02
   0.26850   0.19702178E-02
   0.26950   0.20128733E-02
   0.27050   0.20444810E-02
   0.27150   0.20664535E-02
   0.27250   0.20804855E-02
   0.27350   0.20881924E-02
   0.27450   0.20909703E-02
   0.27550   0.20899691E-02
   0.27650   0.20861113E-02
   0.27750   0.20801285E-02
   0.27850   0.20725962E-02
   0.27950   0.20639671E-02
   0.28050   0.20545966E-02
   0.28150   0.20447643E-02
   0.28250   0.20346900E-02
   0.28350   0.20245451E-02
   0.28450   0.20144621E-02
   0.28550   0.20045410E-02
   0.28650   0.19948513E-02
   0.28750   0.19854347E-02
   0.28850   0.19763017E-02
   0.28950   0.19674269E-02
   0.29050   0.19587360E-02
   0.29150   0.19500813E-02
   0.29250   0.19411943E-02
   0.29350   0.19315898E-02
   0.29450   0.19203527E-02
   0.29550   0.19056159E-02
   0.29650   0.18830725E-02
   0.29750   0.18408627E-02
   0.29850   0.17413194E-02
   0.29950   0.15412326E-02
   0.30050   0.13450093E-02
   0.30150   0.11972493E-02
   0.30250   0.10835310E-02
   0.30350   0.99237112E-03
   0.30450   0.91697264E-03
   0.30550   0.85314410E-03
   0.30650   0.79814094E-03
   0.30750   0.75007038E-03
   0.30850   0.70757105E-03
   0.30950   0.66962949E-03
   0.31050   0.63546910E-03
   0.31150   0.60448021E-03
   0.31250   0.57617354E-03
   0.31350   0.55014872E-03
   0.31450   0.52607176E-03
   0.31550   0.50365936E-03
   0.31650   0.48266631E-03
   0.31750   0.46287687E-03
   0.31850   0.44409736E-03
   0.31950   0.42615065E-03
   0.32050   0.40887165E-03
   0.32150   0.39210395E-03
   0.32250   0.37569733E-03
   0.32350   0.35950672E-03
   0.32450   0.34339266E-03
   0.32550   0.32722435E-03
   0.32650   0.31088639E-03
   0.32750   0.29429080E-03
   0.32850   0.27739664E-03
   0.32950   0.26023894E-03
   0.33050   0.24296790E-03
   0.33150   0.22589484E-03
   0.33250   0.20953403E-03
   0.33350   0.19461832E-03
   0.33450   0.18205600E-03
   0.33550   0.17280159E-03
   0.33650   0.16764438E-03
   0.33750   0.16697611E-03
   0.33850   0.17064277E-03
   0.33950   0.17796482E-03
   0.34050   0.18792116E-03
   0.34150   0.19940453E-03
   0.34250   0.21143732E-03
   0.34350   0.22328785E-03
   0.34450   0.23449026E-03
   0.34550   0.24480477E-03
   0.34650   0.25415624E-03
   0.34750   0.26257525E-03
   0.34850   0.27015235E-03
   0.34950   0.27700639E-03
   0.35050   0.28326485E-03
   0.35150   0.28905296E-03
   0.35250   0.29448819E-03
   0.35350   0.29967850E-03
   0.35450   0.30472266E-03
   0.35550   0.30971190E-03
   0.35650   0.31473266E-03
   0.35750   0.31987071E-03
   0.35850   0.32521796E-03
   0.35950   0.33088616E-03
   0.36050   0.33704078E-03
   0.36150   0.34400288E-03
   0.36250   0.35244110E-03
   0.36350   0.36207537E-03
   0.36450   0.37142483E-03
   0.36550   0.38066658E-03
   0.36650   0.39019069E-03
   0.36750   0.40026006E-03
   0.36850   0.41108011E-03
   0.36950   0.42284143E-03
   0.37050   0.43574354E-03
   0.37150   0.45001227E-03
   0.37250   0.46591694E-03
   0.37350   0.48379149E-03
   0.37450   0.50406362E-03
   0.37550   0.52729866E-03
   0.37650   0.55426860E-03
   0.37750   0.58606517E-03
   0.37850   0.62428811E-03
   0.37950   0.67132292E-03
   0.38050   0.73030096E-03
   0.38150   0.79920201E-03
   0.38250   0.83743781E-03
   0.38350   0.82395575E-03
   0.38450   0.79623843E-03
   0.38550   0.76736801E-03
   0.38650   0.73991861E-03
   0.38750   0.71431603E-03
   0.38850   0.69049484E-03
   0.38950   0.66827907E-03
   0.39050   0.64748141E-03
   0.39150   0.62793057E-03
   0.39250   0.60947600E-03
   0.39350   0.59198710E-03
   0.39450   0.57535031E-03
   0.39550   0.55946619E-03
   0.39650   0.54424681E-03
   0.39750   0.52961370E-03
   0.39850   0.51549583E-03
   0.39950   0.50182815E-03
   0.40050   0.48855029E-03
   0.40150   0.47560545E-03
   0.40250   0.46293924E-03
   0.40350   0.45049840E-03
   0.40450   0.43822906E-03
   0.40550   0.42607394E-03
   0.40650   0.41396730E-03
   0.40750   0.40182544E-03
   0.40850   0.38952718E-03
   0.40950   0.37687260E-03
   0.41050   0.36348752E-03
   0.41150   0.34857701E-03
   0.41250   0.33018144E-03
   0.41350   0.30269878E-03
   0.41450   0.25662410E-03
   0.41550   0.20964083E-03
   0.41650   0.17653353E-03
   0.41750   0.15297829E-03
   0.41850   0.13532767E-03
   0.41950   0.12155678E-03
   0.42050   0.11047554E-03
   0.42150   0.10133236E-03
   0.42250   0.93626797E-04
   0.42350   0.87013737E-04
   0.42450   0.81249607E-04
   0.42550   0.76159602E-04
   0.42650   0.71616392E-04
   0.42750   0.67525805E-04
   0.42850   0.63816908E-04
   0.42950   0.60435228E-04
   0.43050   0.57338009E-04
   0.43150   0.54490942E-04
   0.43250   0.51865904E-04
   0.43350   0.49439415E-04
   0.43450   0.47191534E-04
   0.43550   0.45105091E-04
   0.43650   0.43165142E-04
   0.43750   0.41358544E-04
   0.43850   0.39673672E-04
   0.43950   0.38100174E-04
   0.44050   0.36628797E-04
   0.44150   0.35251225E-04
   0.44250   0.33959976E-04
   0.44350   0.32748289E-04
   0.44450   0.31610038E-04
   0.44550   0.30539672E-04
   0.44650   0.29532142E-04
   0.44750   0.28582848E-04
   0.44850   0.27687587E-04
   0.44950   0.26842525E-04
   0.45050   0.26044141E-04
   0.45150   0.25289208E-04
   0.45250   0.24574754E-04
   0.45350   0.23898046E-04
   0.45450   0.23256554E-04
   0.45550   0.22647939E-04
   0.45650   0.22070022E-04
   0.45750   0.21520784E-04
   0.45850   0.20998328E-04
   0.45950   0.20500884E-04
   0.46050   0.20026775E-04
   0.46150   0.19574420E-04
   0.46250   0.19142308E-04
   0.46350   0.18728990E-04
   0.46450   0.18333065E-04
   0.46550   0.17953167E-04
   0.46650   0.17587949E-04
   0.46750   0.17236069E-04
   0.46850   0.16896174E-04
   0.46950   0.16566884E-04
   0.47050   0.16246777E-04
   0.47150   0.15934364E-04
   0.47250   0.15628088E-04
   0.47350   0.15326306E-04
   0.47450   0.15027296E-04
   0.47550   0.14729282E-04
   0.47650   0.14430502E-04
   0.47750   0.14129357E-04
   0.47850   0.13824665E-04
   0.47950   0.13516138E-04
   0.48050   0.13205126E-04
   0.48150   0.12895764E-04
   0.48250   0.12596489E-04
   0.48350   0.12321664E-04
   0.48450   0.12092436E-04
   0.48550   0.11935225E-04
   0.48650   0.11876143E-04
   0.48750   0.11931508E-04
   0.48850   0.12098726E-04
   0.48950   0.12354223E-04
   0.49050   0.12661286E-04
   0.49150   0.12982880E-04
   0.49250   0.13291499E-04
   0.49350   0.13572339E-04
   0.49450   0.13821455E-04
   0.49550   0.14042396E-04
   0.49650   0.14244155E-04
   0.49750   0.14443804E-04
   0.49850   0.14671241E-04
   0.49950   0.14908012E-04
   0.50050   0.15122723E-04
   0.50150   0.15327414E-04
   0.50250   0.15535154E-04
   0.50350   0.15755702E-04
   0.50450   0.15997332E-04
   0.50550   0.16268079E-04
   0.50650   0.16576621E-04
   0.50750   0.16933045E-04
   0.50850   0.17349721E-04
   0.50950   0.17842420E-04
   0.51050   0.18431896E-04
   0.51150   0.19146264E-04
   0.51250   0.20024712E-04
   0.51350   0.21123624E-04
   0.51450   0.22527143E-04
   0.51550   0.24366571E-04
   0.51650   0.26858736E-04
   0.51750   0.30389416E-04
   0.51850   0.35717210E-04
   0.51950   0.44529101E-04
   0.52050   0.60450850E-04
   0.52150   0.82458057E-04
   0.52250   0.10020601E-03
   0.52350   0.11386828E-03
   0.52450   0.12544786E-03
   0.52550   0.13593302E-03
   0.52650   0.14584346E-03
   0.52750   0.15549354E-03
   0.52850   0.16508820E-03
   0.52950   0.17473388E-03
   0.53050   0.18433058E-03
   0.53150   0.19303098E-03
   0.53250   0.19653012E-03
   0.53350   0.18192666E-03
   0.53450   0.15622134E-03
   0.53550   0.13501941E-03
   0.53650   0.11873293E-03
   0.53750   0.10588711E-03
   0.53850   0.95458548E-04
   0.53950   0.86805296E-04
   0.54050   0.79523888E-04
   0.54150   0.73367089E-04
   0.54250   0.68203561E-04
   0.54350   0.64001411E-04
   0.54450   0.60818853E-04
   0.54550   0.58773483E-04
   0.54650   0.57940702E-04
   0.54750   0.58153993E-04
   0.54850   0.58844376E-04
   0.54950   0.59222766E-04
   0.55050   0.58766505E-04
   0.55150   0.57460333E-04
   0.55250   0.55598048E-04
   0.55350   0.53503023E-04
   0.55450   0.51403880E-04
   0.55550   0.49430288E-04
   0.55650   0.47645153E-04
   0.55750   0.46074081E-04
   0.55850   0.44724366E-04
   0.55950   0.43595646E-04
   0.56050   0.42685526E-04
   0.56150   0.41992440E-04
   0.56250   0.41517127E-04
   0.56350   0.41263425E-04
   0.56450   0.41238818E-04
   0.56550   0.41454859E-04
   0.56650   0.41927691E-04
   0.56750   0.42678646E-04
   0.56850   0.43735068E-04
   0.56950   0.45131335E-04
   0.57050   0.46910216E-04
   0.57150   0.49124628E-04
   0.57250   0.51839885E-04
   0.57350   0.55136639E-04
   0.57450   0.59114689E-04
   0.57550   0.63897962E-04
   0.57650   0.69641006E-04
   0.57750   0.76537683E-04
   0.57850   0.84833395E-04
   0.57950   0.94849391E-04
   0.58050   0.10711737E-03
   0.58150   0.12276106E-03
   0.58250   0.14160549E-03
   0.58350   0.16428105E-03
   0.58450   0.19261963E-03
   0.58550   0.22934972E-03
   0.58650   0.27816356E-03
   0.58750   0.34652284E-03
   0.58850   0.45092634E-03
   0.58950   0.62455173E-03
   0.59050   0.88243856E-03
   0.59150   0.11458924E-02
   0.59250   0.14889357E-02
   0.59350   0.24291701E-02
   0.59450   0.18791135E-02
   0.59550   0.20639845E-02
   0.59650   0.21168655E-02
   0.59750   0.21477041E-02
   0.59850   0.21593226E-02
   0.59950   0.22214747E-02
   0.60050   0.22203685E-02
   0.60150   0.18222681E-02
   0.60250   0.16658732E-02
   0.60350   0.15431853E-02
   0.60450   0.14496425E-02
   0.60550   0.14189022E-02
   0.60650   0.16043733E-02
   0.60750   0.15533045E-02
   0.60850   0.69979243E-02
   0.60950   0.24177652E-01
   0.61050   0.11314378E-02
   0.61150   0.10929306E-02
   0.61250   0.13610438E-02
   0.61350   0.22653514E-02
   0.61450   0.41266088E-02
   0.61550   0.11987044E-01
   0.61650   0.35287815E-02
   0.61750   0.17106095E-01
   0.61850   0.37687842E-01
   0.61950   0.86624864E-02
   0.62050   0.57566375E-02
   0.62150   0.51156767E-02
   0.62250   0.39523556E-02
   0.62350   0.34921644E-02
   0.62450   0.34966485E-02
   0.62550   0.36151132E-02
   0.62650   0.33605108E-02
   0.62750   0.33061935E-02
   0.62850   0.35815346E-02
   0.62950   0.39768778E-02
   0.63050   0.45413617E-02
   0.63150   0.51992452E-02
   0.63250   0.58822073E-02
   0.63350   0.65471623E-02
   0.63450   0.70642768E-02
   0.63550   0.74265325E-02
   0.63650   0.76866830E-02
   0.63750   0.78292405E-02
   0.63850   0.78397524E-02
   0.63950   0.77674347E-02
   0.64050   0.76703248E-02
   0.64150   0.75625824E-02
   0.64250   0.74273068E-02
   0.64350   0.72529903E-02
   0.64450   0.70469109E-02
   0.64550   0.68226126E-02
   0.64650   0.65870429E-02
   0.64750   0.63406830E-02
   0.64850   0.60836850E-02
   0.64950   0.58185775E-02
   0.65050   0.55488665E-02
   0.65150   0.52775717E-02
   0.65250   0.50074463E-02
   0.65350   0.47416654E-02
   0.65450   0.44838046E-02
   0.65550   0.42372718E-02
   0.65650   0.40048333E-02
   0.65750   0.37884614E-02
   0.65850   0.35893712E-02
   0.65950   0.34080974E-02
   0.66050   0.32445856E-02
   0.66150   0.30983118E-02
   0.66250   0.29684138E-02
   0.66350   0.28538092E-02
   0.66450   0.27532859E-02
   0.66550   0.26655712E-02
   0.66650   0.25893894E-02
   0.66750   0.25235151E-02
   0.66850   0.24668209E-02
   0.66950   0.24183071E-02
   0.67050   0.23771159E-02
   0.67150   0.23425228E-02
   0.67250   0.23139210E-02
   0.67350   0.22908067E-02
   0.67450   0.22727780E-02
   0.67550   0.22595488E-02
   0.67650   0.22509766E-02
   0.67750   0.22470946E-02
   0.67850   0.22481421E-02
   0.67950   0.22545934E-02
   0.68050   0.22671865E-02
   0.68150   0.22869580E-02
   0.68250   0.23152828E-02
   0.68350   0.23538480E-02
   0.68450   0.24041864E-02
   0.68550   0.24645787E-02
   0.68650   0.25097770E-02
   0.68750   0.24242012E-02
   0.68850   0.22088636E-02
   0.68950   0.20070376E-02
   0.69050   0.18414061E-02
   0.69150   0.17055976E-02
   0.69250   0.15928163E-02
   0.69350   0.14980733E-02
   0.69450   0.14178090E-02
   0.69550   0.13494468E-02
   0.69650   0.12910860E-02
   0.69750   0.12413043E-02
   0.69850   0.11990285E-02
   0.69950   0.11634446E-02
   0.70050   0.11339268E-02
   0.70150   0.11099454E-02
   0.70250   0.10908499E-02
   0.70350   0.10750504E-02
   0.70450   0.10560248E-02
   0.70550   0.10100615E-02
   0.70650   0.93711447E-03
   0.70750   0.87166385E-03
   0.70850   0.81763422E-03
   0.70950   0.77214465E-03
   0.71050   0.73290023E-03
   0.71150   0.69836044E-03
   0.71250   0.66747540E-03
   0.71350   0.63950551E-03
   0.71450   0.61391463E-03
   0.71550   0.59030484E-03
   0.71650   0.56837616E-03
   0.71750   0.54789986E-03
   0.71850   0.52870042E-03
   0.71950   0.51064283E-03
   0.72050   0.49362407E-03
   0.72150   0.47756595E-03
   0.72250   0.46241027E-03
   0.72350   0.44811488E-03
   0.72450   0.43465052E-03
   0.72550   0.42199835E-03
   0.72650   0.41014820E-03
   0.72750   0.39909774E-03
   0.72850   0.38885357E-03
   0.72950   0.37943723E-03
   0.73050   0.37091007E-03
   0.73150   0.36348699E-03
   0.73250   0.35790727E-03
   0.73350   0.35436658E-03
   0.73450   0.35178309E-03
   0.73550   0.34989972E-03
   0.73650   0.34873033E-03
   0.73750   0.34829875E-03
   0.73850   0.34861831E-03
   0.73950   0.34969350E-03
   0.74050   0.35152276E-03
   0.74150   0.35410031E-03
   0.74250   0.35741710E-03
   0.74350   0.36146177E-03
   0.74450   0.36622107E-03
   0.74550   0.37168019E-03
   0.74650   0.37782325E-03
   0.74750   0.38463346E-03
   0.74850   0.39209347E-03
   0.74950   0.40018553E-03
   0.75050   0.40889191E-03
   0.75150   0.41819501E-03
   0.75250   0.42807774E-03
   0.75350   0.43852368E-03
   0.75450   0.44951757E-03
   0.75550   0.46104533E-03
   0.75650   0.47309455E-03
   0.75750   0.48565472E-03
   0.75850   0.49871771E-03
   0.75950   0.51227806E-03
   0.76050   0.52633340E-03
   0.76150   0.54088514E-03
   0.76250   0.55593869E-03
   0.76350   0.57150435E-03
   0.76450   0.58759790E-03
   0.76550   0.60424116E-03
   0.76650   0.62146294E-03
   0.76750   0.63929980E-03
   0.76850   0.65779709E-03
   0.76950   0.67701004E-03
   0.77050   0.69700513E-03
   0.77150   0.71786158E-03
   0.77250   0.73967321E-03
   0.77350   0.76255074E-03
   0.77450   0.78662374E-03
   0.77550   0.81204320E-03
   0.77650   0.83898101E-03
   0.77750   0.86762215E-03
   0.77850   0.89812785E-03
   0.77950   0.93048409E-03
   0.78050   0.96381252E-03
   0.78150   0.99284819E-03
   0.78250   0.10031490E-02
   0.78350   0.10067406E-02
   0.78450   0.10201611E-02
   0.78550   0.10433486E-02
   0.78650   0.10746133E-02
   0.78750   0.11128283E-02
   0.78850   0.11573242E-02
   0.78950   0.12077220E-02
   0.79050   0.12638300E-02
   0.79150   0.13255845E-02
   0.79250   0.13930149E-02
   0.79350   0.14662222E-02
   0.79450   0.15453668E-02
   0.79550   0.16306614E-02
   0.79650   0.17223669E-02
   0.79750   0.18207944E-02
   0.79850   0.19263091E-02
   0.79950   0.20393403E-02
   0.80050   0.21603974E-02
   0.80150   0.22900933E-02
   0.80250   0.24291780E-02
   0.80350   0.25785819E-02
   0.80450   0.27394749E-02
   0.80550   0.29133421E-02
   0.80650   0.31020851E-02
   0.80750   0.33081672E-02
   0.80850   0.35348381E-02
   0.80950   0.37865534E-02
   0.81050   0.40699625E-02
   0.81150   0.43971092E-02
   0.81250   0.48016873E-02
   0.81350   0.55296612E-02
   0.81450   0.54713935E-01
   0.81550   0.94313109E-02
   0.81650   0.81211627E-02
   0.81750   0.75304843E-02
   0.81850   0.83909323E-02
   0.81950   0.97085927E-02
   0.82050   0.12203042E-01
   0.82150   0.20425716E-01
   0.82250   0.30607069E-01
   0.82350   0.29282164E-01
   0.82450   0.15798109E-01
   0.82550   0.18975232E-01
   0.82650   0.23058049E-01
   0.82750   0.28386191E-01
   0.82850   0.36580753E-01
   0.82950   0.55200376E-01
   0.83050   0.48767067E-01
   0.83150   0.64851798E-01
   0.83250   0.12427816E+00
   0.83350   0.37704289E+00
   0.83450   0.17287529E+00
   0.83550   0.18596801E+00
   0.83650   0.40113494E+00
   0.83750   0.30096918E+00
   0.83850   0.24598522E+00
   0.83950   0.52664399E+00
   0.84050   0.55043006E+00
   0.84150   0.28752917E+00
   0.84250   0.29607183E+00
   0.84350   0.21794266E+00
   0.84450   0.18981209E+00
   0.84550   0.18438578E+00
   0.84650   0.19135666E+00
   0.84750   0.20234077E+00
   0.84850   0.22266926E+00
   0.84950   0.23651896E+00
   0.85050   0.24158433E+00
   0.85150   0.22051929E+00
   0.85250   0.19460870E+00
   0.85350   0.17906803E+00
   0.85450   0.16912302E+00
   0.85550   0.16327158E+00
   0.85650   0.16143553E+00
   0.85750   0.16231599E+00
   0.85850   0.16398288E+00
   0.85950   0.16480696E+00
   0.86050   0.16465466E+00
   0.86150   0.16442324E+00
   0.86250   0.16471292E+00
   0.86350   0.16554028E+00
   0.86450   0.16678885E+00
   0.86550   0.16854760E+00
   0.86650   0.17105950E+00
   0.86750   0.17450531E+00
   0.86850   0.17897898E+00
   0.86950   0.18459085E+00
   0.87050   0.19128677E+00
   0.87150   0.19844547E+00
   0.87250   0.20498128E+00
   0.87350   0.21017890E+00
   0.87450   0.21422103E+00
   0.87550   0.21772733E+00
   0.87650   0.22111516E+00
   0.87750   0.22439292E+00
   0.87850   0.22722183E+00
   0.87950   0.22926727E+00
   0.88050   0.23059452E+00
   0.88150   0.23167212E+00
   0.88250   0.23301190E+00
   0.88350   0.23479293E+00
   0.88450   0.23674108E+00
   0.88550   0.23831902E+00
   0.88650   0.23908840E+00
   0.88750   0.23898943E+00
   0.88850   0.23833813E+00
   0.88950   0.23756453E+00
   0.89050   0.23689587E+00
   0.89150   0.23618007E+00
   0.89250   0.23493113E+00
   0.89350   0.23256710E+00
   0.89450   0.22871579E+00
   0.89550   0.22340907E+00
   0.89650   0.21705280E+00
   0.89750   0.21022278E+00
   0.89850   0.20343985E+00
   0.89950   0.19704142E+00
   0.90050   0.19117120E+00
   0.90150   0.18550369E+00
   0.90250   0.17952047E+00
   0.90350   0.17469861E+00
   0.90450   0.17101654E+00
   0.90550   0.16787276E+00
   0.90650   0.16502245E+00
   0.90750   0.16242522E+00
   0.90850   0.16013414E+00
   0.90950   0.15821977E+00
   0.91050   0.15671538E+00
   0.91150   0.15558772E+00
   0.91250   0.15473734E+00
   0.91350   0.15402678E+00
   0.91450   0.15332501E+00
   0.91550   0.15254806E+00
   0.91650   0.15167615E+00
   0.91750   0.15074252E+00
   0.91850   0.14980596E+00
   0.91950   0.14892609E+00
   0.92050   0.14815149E+00
   0.92150   0.14751907E+00
   0.92250   0.14705749E+00
   0.92350   0.14678957E+00
   0.92450   0.14673355E+00
   0.92550   0.14690508E+00
   0.92650   0.14732012E+00
   0.92750   0.14799841E+00
   0.92850   0.14896619E+00
   0.92950   0.15025765E+00
   0.93050   0.15191497E+00
   0.93150   0.15398763E+00
   0.93250   0.15653111E+00
   0.93350   0.15960571E+00
   0.93450   0.16327584E+00
   0.93550   0.16760944E+00
   0.93650   0.17267758E+00
   0.93750   0.17855310E+00
   0.93850   0.18530829E+00
   0.93950   0.19301184E+00
   0.94050   0.20172690E+00
   0.94150   0.21151309E+00
   0.94250   0.22243461E+00
   0.94350   0.23457584E+00
   0.94450   0.24811240E+00
   0.94550   0.26366243E+00
   0.94650   0.28189775E+00
   0.94750   0.30330345E+00
   0.94850   0.32864237E+00
   0.94950   0.35885927E+00
   0.95050   0.39482561E+00
   0.95150   0.43653172E+00
   0.95250   0.48169538E+00
   0.95350   0.52810246E+00
   0.95450   0.57857788E+00
   0.95550   0.63153958E+00
   0.95650   0.68327749E+00
   0.95750   0.75977254E+00
   0.95850   0.85900241E+00
   0.95950   0.95622903E+00
   0.96050   0.97887588E+00
   0.96150   0.87670141E+00
   0.96250   0.77119076E+00
   0.96350   0.77868819E+00
   0.96450   0.79943490E+00
   0.96550   0.81857634E+00
   0.96650   0.83563089E+00
   0.96750   0.86581767E+00
   0.96850   0.91182095E+00
   0.96950   0.96691465E+00
   0.97050   0.10302187E+01
   0.97150   0.10815767E+01
   0.97250   0.10973884E+01
   0.97350   0.11160194E+01
   0.97450   0.11632220E+01
   0.97550   0.12450209E+01
   0.97650   0.13634583E+01
   0.97750   0.15149485E+01
   0.97850   0.16716310E+01
   0.97950   0.17751790E+01
   0.98050   0.18318328E+01
   0.98150   0.18608475E+01
   0.98250   0.18911873E+01
   0.98350   0.19189323E+01
   0.98450   0.19043128E+01
   0.98550   0.18772306E+01
   0.98650   0.18594682E+01
   0.98750   0.18498458E+01
   0.98850   0.18522547E+01
   0.98950   0.18655856E+01
   0.99050   0.18757833E+01
   0.99150   0.18785878E+01
   0.99250   0.18681564E+01
   0.99350   0.18268716E+01
   0.99450   0.17569723E+01
   0.99550   0.16745150E+01
   0.99650   0.15949452E+01
   0.99750   0.15295250E+01
   0.99850   0.14839888E+01
   0.99950   0.14595134E+01
