# Transmission, k-averaged
# Date: 2021-05-13
#   E [eV]           T [G0]
   0.00050   0.42569742E-01
   0.00150   0.72542191E-01
   0.00250   0.65049849E-01
   0.00350   0.72655007E-01
   0.00450   0.90668477E-01
   0.00550   0.94261013E-01
   0.00650   0.80989525E-01
   0.00750   0.24931796E-01
   0.00850   0.37282303E-01
   0.00950   0.24913602E-01
   0.01050   0.22221431E-01
   0.01150   0.14946274E-01
   0.01250   0.34599200E-01
   0.01350   0.73725460E-02
   0.01450   0.24668466E-01
   0.01550   0.14321039E-01
   0.01650   0.54397285E-02
   0.01750   0.16983204E-01
   0.01850   0.18714774E-01
   0.01950   0.40179021E-02
   0.02050   0.46893475E-02
   0.02150   0.39105829E-01
   0.02250   0.82395673E-02
   0.02350   0.26534724E-02
   0.02450   0.29831103E-02
   0.02550   0.14453611E-01
   0.02650   0.13586750E-01
   0.02750   0.23716802E-02
   0.02850   0.16025451E-02
   0.02950   0.25932996E-02
   0.03050   0.18659636E-01
   0.03150   0.88017071E-02
   0.03250   0.19348512E-02
   0.03350   0.13042741E-02
   0.03450   0.17534100E-02
   0.03550   0.57896245E-02
   0.03650   0.42490147E-01
   0.03750   0.38319810E-02
   0.03850   0.16554410E-02
   0.03950   0.14453701E-02
   0.04050   0.22227115E-02
   0.04150   0.78286305E-02
   0.04250   0.33692677E-01
   0.04350   0.43564583E-02
   0.04450   0.19280526E-02
   0.04550   0.16120569E-02
   0.04650   0.20075983E-02
   0.04750   0.32940034E-02
   0.04850   0.51745502E-02
   0.04950   0.40863110E-02
   0.05050   0.23360439E-02
   0.05150   0.15623139E-02
   0.05250   0.12941634E-02
   0.05350   0.12932539E-02
   0.05450   0.15019423E-02
   0.05550   0.18885167E-02
   0.05650   0.22145936E-02
   0.05750   0.20739078E-02
   0.05850   0.16298032E-02
   0.05950   0.12672280E-02
   0.06050   0.10695922E-02
   0.06150   0.10040516E-02
   0.06250   0.10417531E-02
   0.06350   0.11633108E-02
   0.06450   0.13242853E-02
   0.06550   0.14172707E-02
   0.06650   0.13446952E-02
   0.06750   0.11584744E-02
   0.06850   0.97665633E-03
   0.06950   0.85489190E-03
   0.07050   0.79831778E-03
   0.07150   0.79902215E-03
   0.07250   0.84763841E-03
   0.07350   0.92718651E-03
   0.07450   0.99993346E-03
   0.07550   0.10131571E-02
   0.07650   0.94661914E-03
   0.07750   0.83780714E-03
   0.07850   0.73620217E-03
   0.07950   0.66673098E-03
   0.08050   0.63459674E-03
   0.08150   0.63791970E-03
   0.08250   0.67239848E-03
   0.08350   0.72834943E-03
   0.08450   0.78377279E-03
   0.08550   0.80550479E-03
   0.08650   0.77332143E-03
   0.08750   0.70274348E-03
   0.08850   0.62764582E-03
   0.08950   0.57207199E-03
   0.09050   0.54552208E-03
   0.09150   0.54798956E-03
   0.09250   0.56160678E-03
   0.09350   0.56629837E-03
   0.09450   0.55585388E-03
   0.09550   0.52171934E-03
   0.09650   0.46747827E-03
   0.09750   0.40726588E-03
   0.09850   0.35382065E-03
   0.09950   0.31284190E-03
   0.10050   0.28474303E-03
   0.10150   0.26762803E-03
   0.10250   0.25883800E-03
   0.10350   0.25528931E-03
   0.10450   0.25342236E-03
   0.10550   0.24955109E-03
   0.10650   0.24102266E-03
   0.10750   0.22751470E-03
   0.10850   0.21106481E-03
   0.10950   0.19463451E-03
   0.11050   0.18060800E-03
   0.11150   0.17023989E-03
   0.11250   0.16383528E-03
   0.11350   0.16108350E-03
   0.11450   0.16125590E-03
   0.11550   0.16326943E-03
   0.11650   0.16576282E-03
   0.11750   0.16735528E-03
   0.11850   0.16710693E-03
   0.11950   0.16491881E-03
   0.12050   0.16153304E-03
   0.12150   0.15812693E-03
   0.12250   0.15583528E-03
   0.12350   0.15547394E-03
   0.12450   0.15747326E-03
   0.12550   0.16189572E-03
   0.12650   0.16844433E-03
   0.12750   0.17645446E-03
   0.12850   0.18493959E-03
   0.12950   0.19278366E-03
   0.13050   0.19908957E-03
   0.13150   0.20352860E-03
   0.13250   0.20646132E-03
   0.13350   0.20875290E-03
   0.13450   0.21143073E-03
   0.13550   0.21538373E-03
   0.13650   0.22118658E-03
   0.13750   0.22901731E-03
   0.13850   0.23861582E-03
   0.13950   0.24927509E-03
   0.14050   0.25991580E-03
   0.14150   0.26930965E-03
   0.14250   0.27644463E-03
   0.14350   0.28088858E-03
   0.14450   0.28294208E-03
   0.14550   0.28348764E-03
   0.14650   0.28364404E-03
   0.14750   0.28441910E-03
   0.14850   0.28647864E-03
   0.14950   0.29003771E-03
   0.15050   0.29483586E-03
   0.15150   0.30018069E-03
   0.15250   0.30508635E-03
   0.15350   0.30853774E-03
   0.15450   0.30984514E-03
   0.15550   0.30894997E-03
   0.15650   0.30651470E-03
   0.15750   0.30374530E-03
   0.15850   0.30206234E-03
   0.15950   0.30279483E-03
   0.16050   0.30699070E-03
   0.16150   0.31533209E-03
   0.16250   0.32810302E-03
   0.16350   0.34518444E-03
   0.16450   0.36610835E-03
   0.16550   0.39023015E-03
   0.16650   0.41702701E-03
   0.16750   0.44641143E-03
   0.16850   0.47887766E-03
   0.16950   0.51536155E-03
   0.17050   0.55683200E-03
   0.17150   0.60367951E-03
   0.17250   0.65486506E-03
   0.17350   0.70645154E-03
   0.17450   0.74776082E-03
   0.17550   0.75144728E-03
   0.17650   0.70904574E-03
   0.17750   0.66756341E-03
   0.17850   0.63539442E-03
   0.17950   0.60901744E-03
   0.18050   0.58617891E-03
   0.18150   0.56566281E-03
   0.18250   0.54671068E-03
   0.18350   0.52873866E-03
   0.18450   0.51123067E-03
   0.18550   0.49372308E-03
   0.18650   0.47583636E-03
   0.18750   0.45732156E-03
   0.18850   0.43809725E-03
   0.18950   0.41825706E-03
   0.19050   0.39803897E-03
   0.19150   0.37776289E-03
   0.19250   0.35775304E-03
   0.19350   0.33826780E-03
   0.19450   0.31945357E-03
   0.19550   0.30133160E-03
   0.19650   0.28381727E-03
   0.19750   0.26676606E-03
   0.19850   0.25003499E-03
   0.19950   0.23354399E-03
   0.20050   0.21731919E-03
   0.20150   0.20150273E-03
   0.20250   0.18632483E-03
   0.20350   0.17204905E-03
   0.20450   0.15891205E-03
   0.20550   0.14707909E-03
   0.20650   0.13662716E-03
   0.20750   0.12755669E-03
   0.20850   0.11982510E-03
   0.20950   0.11339351E-03
   0.21050   0.10827622E-03
   0.21150   0.10458381E-03
   0.21250   0.10255475E-03
   0.21350   0.10258222E-03
   0.21450   0.10526059E-03
   0.21550   0.11149615E-03
   0.21650   0.12263493E-03
   0.21750   0.13824845E-03
   0.21850   0.14758280E-03
   0.21950   0.15011987E-03
   0.22050   0.15244872E-03
   0.22150   0.15671035E-03
   0.22250   0.16336753E-03
   0.22350   0.17237652E-03
   0.22450   0.18350121E-03
   0.22550   0.19641455E-03
   0.22650   0.21074768E-03
   0.22750   0.22613314E-03
   0.22850   0.24225596E-03
   0.22950   0.25891265E-03
   0.23050   0.27607285E-03
   0.23150   0.29393306E-03
   0.23250   0.31291283E-03
   0.23350   0.33315155E-03
   0.23450   0.34990071E-03
   0.23550   0.34804267E-03
   0.23650   0.33471614E-03
   0.23750   0.32005442E-03
   0.23850   0.30616546E-03
   0.23950   0.29344423E-03
   0.24050   0.28196225E-03
   0.24150   0.27169698E-03
   0.24250   0.26256675E-03
   0.24350   0.25442481E-03
   0.24450   0.24704036E-03
   0.24550   0.24007040E-03
   0.24650   0.23302301E-03
   0.24750   0.22521691E-03
   0.24850   0.21576216E-03
   0.24950   0.20363661E-03
   0.25050   0.18803784E-03
   0.25150   0.16932120E-03
   0.25250   0.15067669E-03
   0.25350   0.13947365E-03
   0.25450   0.14527414E-03
   0.25550   0.17360966E-03
   0.25650   0.22178516E-03
   0.25750   0.28175008E-03
   0.25850   0.34519591E-03
   0.25950   0.40555533E-03
   0.26050   0.45764042E-03
   0.26150   0.49736485E-03
   0.26250   0.52218809E-03
   0.26350   0.53135678E-03
   0.26450   0.52556541E-03
   0.26550   0.50691253E-03
   0.26650   0.47906028E-03
   0.26750   0.44652249E-03
   0.26850   0.41334837E-03
   0.26950   0.38228650E-03
   0.27050   0.35473632E-03
   0.27150   0.33111771E-03
   0.27250   0.31128532E-03
   0.27350   0.29483248E-03
   0.27450   0.28127225E-03
   0.27550   0.27013003E-03
   0.27650   0.26098327E-03
   0.27750   0.25347332E-03
   0.27850   0.24730369E-03
   0.27950   0.24223312E-03
   0.28050   0.23806702E-03
   0.28150   0.23464934E-03
   0.28250   0.23185520E-03
   0.28350   0.22958484E-03
   0.28450   0.22775856E-03
   0.28550   0.22631255E-03
   0.28650   0.22519549E-03
   0.28750   0.22436561E-03
   0.28850   0.22378807E-03
   0.28950   0.22343242E-03
   0.29050   0.22326957E-03
   0.29150   0.22326772E-03
   0.29250   0.22338584E-03
   0.29350   0.22356129E-03
   0.29450   0.22368359E-03
   0.29550   0.22353066E-03
   0.29650   0.22258754E-03
   0.29750   0.21942185E-03
   0.29850   0.20943422E-03
   0.29950   0.18713855E-03
   0.30050   0.16496531E-03
   0.30150   0.14844675E-03
   0.30250   0.13593635E-03
   0.30350   0.12609504E-03
   0.30450   0.11813128E-03
   0.30550   0.11156002E-03
   0.30650   0.10606657E-03
   0.30750   0.10143680E-03
   0.30850   0.97519420E-04
   0.30950   0.94204595E-04
   0.31050   0.91410948E-04
   0.31150   0.89077424E-04
   0.31250   0.87157990E-04
   0.31350   0.85617939E-04
   0.31450   0.84431398E-04
   0.31550   0.83579398E-04
   0.31650   0.83048450E-04
   0.31750   0.82829305E-04
   0.31850   0.82915765E-04
   0.31950   0.83303436E-04
   0.32050   0.83988270E-04
   0.32150   0.84964602E-04
   0.32250   0.86222630E-04
   0.32350   0.87744978E-04
   0.32450   0.89502144E-04
   0.32550   0.91446724E-04
   0.32650   0.93506562E-04
   0.32750   0.95577721E-04
   0.32850   0.97519362E-04
   0.32950   0.99154691E-04
   0.33050   0.10028451E-03
   0.33150   0.10072112E-03
   0.33250   0.10034673E-03
   0.33350   0.99187040E-04
   0.33450   0.97466233E-04
   0.33550   0.95588090E-04
   0.33650   0.94004376E-04
   0.33750   0.93006216E-04
   0.33850   0.92562994E-04
   0.33950   0.92331553E-04
   0.34050   0.91834037E-04
   0.34150   0.90676564E-04
   0.34250   0.88677392E-04
   0.34350   0.85870066E-04
   0.34450   0.82429564E-04
   0.34550   0.78585319E-04
   0.34650   0.74557793E-04
   0.34750   0.70526039E-04
   0.34850   0.66618828E-04
   0.34950   0.62918785E-04
   0.35050   0.59471677E-04
   0.35150   0.56296314E-04
   0.35250   0.53392992E-04
   0.35350   0.50749873E-04
   0.35450   0.48347374E-04
   0.35550   0.46160789E-04
   0.35650   0.44161370E-04
   0.35750   0.42315754E-04
   0.35850   0.40583080E-04
   0.35950   0.38907587E-04
   0.36050   0.37200294E-04
   0.36150   0.35293790E-04
   0.36250   0.32951106E-04
   0.36350   0.30762360E-04
   0.36450   0.29465260E-04
   0.36550   0.28755107E-04
   0.36650   0.28403920E-04
   0.36750   0.28309196E-04
   0.36850   0.28421511E-04
   0.36950   0.28716675E-04
   0.37050   0.29184890E-04
   0.37150   0.29826260E-04
   0.37250   0.30649098E-04
   0.37350   0.31669857E-04
   0.37450   0.32914315E-04
   0.37550   0.34420202E-04
   0.37650   0.36241890E-04
   0.37750   0.38458486E-04
   0.37850   0.41187541E-04
   0.37950   0.44606033E-04
   0.38050   0.48952588E-04
   0.38150   0.54137799E-04
   0.38250   0.57443820E-04
   0.38350   0.57337464E-04
   0.38450   0.56297195E-04
   0.38550   0.55209126E-04
   0.38650   0.54252476E-04
   0.38750   0.53460328E-04
   0.38850   0.52832067E-04
   0.38950   0.52359461E-04
   0.39050   0.52033578E-04
   0.39150   0.51846720E-04
   0.39250   0.51792787E-04
   0.39350   0.51867202E-04
   0.39450   0.52066669E-04
   0.39550   0.52388896E-04
   0.39650   0.52832282E-04
   0.39750   0.53395550E-04
   0.39850   0.54077369E-04
   0.39950   0.54875840E-04
   0.40050   0.55787877E-04
   0.40150   0.56808447E-04
   0.40250   0.57929534E-04
   0.40350   0.59138853E-04
   0.40450   0.60418210E-04
   0.40550   0.61741332E-04
   0.40650   0.63071100E-04
   0.40750   0.64355729E-04
   0.40850   0.65523120E-04
   0.40950   0.66471235E-04
   0.41050   0.67048197E-04
   0.41150   0.67002373E-04
   0.41250   0.65829554E-04
   0.41350   0.62251158E-04
   0.41450   0.54102937E-04
   0.41550   0.44953526E-04
   0.41650   0.38134647E-04
   0.41750   0.32956374E-04
   0.41850   0.28779790E-04
   0.41950   0.25267587E-04
   0.42050   0.22238210E-04
   0.42150   0.19588737E-04
   0.42250   0.17257265E-04
   0.42350   0.15203304E-04
   0.42450   0.13397133E-04
   0.42550   0.11814117E-04
   0.42650   0.10431905E-04
   0.42750   0.92293176E-05
   0.42850   0.81861235E-05
   0.42950   0.72831963E-05
   0.43050   0.65027684E-05
   0.43150   0.58286450E-05
   0.43250   0.52463115E-05
   0.43350   0.47429503E-05
   0.43450   0.43073724E-05
   0.43550   0.39299039E-05
   0.43650   0.36022377E-05
   0.43750   0.33172796E-05
   0.43850   0.30689930E-05
   0.43950   0.28522552E-05
   0.44050   0.26627245E-05
   0.44150   0.24967255E-05
   0.44250   0.23511479E-05
   0.44350   0.22233587E-05
   0.44450   0.21111291E-05
   0.44550   0.20125717E-05
   0.44650   0.19260890E-05
   0.44750   0.18503282E-05
   0.44850   0.17841458E-05
   0.44950   0.17265762E-05
   0.45050   0.16768078E-05
   0.45150   0.16341606E-05
   0.45250   0.15980706E-05
   0.45350   0.15680749E-05
   0.45450   0.15438014E-05
   0.45550   0.15249589E-05
   0.45650   0.15113314E-05
   0.45750   0.15027728E-05
   0.45850   0.14992032E-05
   0.45950   0.15006082E-05
   0.46050   0.15070376E-05
   0.46150   0.15186079E-05
   0.46250   0.15355042E-05
   0.46350   0.15579851E-05
   0.46450   0.15863884E-05
   0.46550   0.16211385E-05
   0.46650   0.16627557E-05
   0.46750   0.17118666E-05
   0.46850   0.17692157E-05
   0.46950   0.18356774E-05
   0.47050   0.19122663E-05
   0.47150   0.20001453E-05
   0.47250   0.21006240E-05
   0.47350   0.22151423E-05
   0.47450   0.23452274E-05
   0.47550   0.24924036E-05
   0.47650   0.26580317E-05
   0.47750   0.28430331E-05
   0.47850   0.30474612E-05
   0.47950   0.32698688E-05
   0.48050   0.35064829E-05
   0.48150   0.37502914E-05
   0.48250   0.39903948E-05
   0.48350   0.42122319E-05
   0.48450   0.43993305E-05
   0.48550   0.45364213E-05
   0.48650   0.46120263E-05
   0.48750   0.46179921E-05
   0.48850   0.45468128E-05
   0.48950   0.43921677E-05
   0.49050   0.41551239E-05
   0.49150   0.38496755E-05
   0.49250   0.35007297E-05
   0.49350   0.31361330E-05
   0.49450   0.27791011E-05
   0.49550   0.24445794E-05
   0.49650   0.21388050E-05
   0.49750   0.18594299E-05
   0.49850   0.16008208E-05
   0.49950   0.13845898E-05
   0.50050   0.12160989E-05
   0.50150   0.10809788E-05
   0.50250   0.97001794E-06
   0.50350   0.87767796E-06
   0.50450   0.80026632E-06
   0.50550   0.73513974E-06
   0.50650   0.68032597E-06
   0.50750   0.63432225E-06
   0.50850   0.59597716E-06
   0.50950   0.56441945E-06
   0.51050   0.53901601E-06
   0.51150   0.51935285E-06
   0.51250   0.50523852E-06
   0.51350   0.49673662E-06
   0.51450   0.49424392E-06
   0.51550   0.49865383E-06
   0.51650   0.51170048E-06
   0.51750   0.53673654E-06
   0.51850   0.58070651E-06
   0.51950   0.65983988E-06
   0.52050   0.81233668E-06
   0.52150   0.10404048E-05
   0.52250   0.12421265E-05
   0.52350   0.14152241E-05
   0.52450   0.15830699E-05
   0.52550   0.17607631E-05
   0.52650   0.19597830E-05
   0.52750   0.21910719E-05
   0.52850   0.24667352E-05
   0.52950   0.28010934E-05
   0.53050   0.32103962E-05
   0.53150   0.37050504E-05
   0.53250   0.42328948E-05
   0.53350   0.44925969E-05
   0.53450   0.44630019E-05
   0.53550   0.44789867E-05
   0.53650   0.46037885E-05
   0.53750   0.48400657E-05
   0.53850   0.51930110E-05
   0.53950   0.56755398E-05
   0.54050   0.63075317E-05
   0.54150   0.71133377E-05
   0.54250   0.81155904E-05
   0.54350   0.93209301E-05
   0.54450   0.10692051E-04
   0.54550   0.12106290E-04
   0.54650   0.13326089E-04
   0.54750   0.14043446E-04
   0.54850   0.14027871E-04
   0.54950   0.13265115E-04
   0.55050   0.11953617E-04
   0.55150   0.10388962E-04
   0.55250   0.88325432E-05
   0.55350   0.74406980E-05
   0.55450   0.62705685E-05
   0.55550   0.53193589E-05
   0.55650   0.45587908E-05
   0.55750   0.39547585E-05
   0.55850   0.34758843E-05
   0.55950   0.30961721E-05
   0.56050   0.27951230E-05
   0.56150   0.25569702E-05
   0.56250   0.23697512E-05
   0.56350   0.22244778E-05
   0.56450   0.21144701E-05
   0.56550   0.20348532E-05
   0.56650   0.19821925E-05
   0.56750   0.19542408E-05
   0.56850   0.19497752E-05
   0.56950   0.19685144E-05
   0.57050   0.20111038E-05
   0.57150   0.20791749E-05
   0.57250   0.21754843E-05
   0.57350   0.23041539E-05
   0.57450   0.24710391E-05
   0.57550   0.26842513E-05
   0.57650   0.29547778E-05
   0.57750   0.32967102E-05
   0.57850   0.37245641E-05
   0.57950   0.42419751E-05
   0.58050   0.50912549E-05
   0.58150   0.13186193E-04
   0.58250   0.44784927E-04
   0.58350   0.29997604E-04
   0.58450   0.17235639E-04
   0.58550   0.16732376E-04
   0.58650   0.19630099E-04
   0.58750   0.24850524E-04
   0.58850   0.32457061E-04
   0.58950   0.42006293E-04
   0.59050   0.51268649E-04
   0.59150   0.64228778E-04
   0.59250   0.23068710E-03
   0.59350   0.14353965E-02
   0.59450   0.29082171E-03
   0.59550   0.23839800E-03
   0.59650   0.82772298E-04
   0.59750   0.34002991E-04
   0.59850   0.24872759E-04
   0.59950   0.12916635E-03
   0.60050   0.14603426E-02
   0.60150   0.96810749E-04
   0.60250   0.27639779E-04
   0.60350   0.22495906E-04
   0.60450   0.30630159E-04
   0.60550   0.77925841E-04
   0.60650   0.71109919E-03
   0.60750   0.10590508E-01
   0.60850   0.15240248E-01
   0.60950   0.43730482E-01
   0.61050   0.10021941E-02
   0.61150   0.30137962E-03
   0.61250   0.27920026E-03
   0.61350   0.60608890E-03
   0.61450   0.18202546E-02
   0.61550   0.25547113E-01
   0.61650   0.23398809E-02
   0.61750   0.26633600E-01
   0.61850   0.16889134E-01
   0.61950   0.35865263E-02
   0.62050   0.42394772E-02
   0.62150   0.55189067E-02
   0.62250   0.39611170E-02
   0.62350   0.23858361E-02
   0.62450   0.21087341E-02
   0.62550   0.18281207E-02
   0.62650   0.18630800E-02
   0.62750   0.17242781E-02
   0.62850   0.20599531E-02
   0.62950   0.24849507E-02
   0.63050   0.26219541E-02
   0.63150   0.24209954E-02
   0.63250   0.21252646E-02
   0.63350   0.19469955E-02
   0.63450   0.19008219E-02
   0.63550   0.19539620E-02
   0.63650   0.20534676E-02
   0.63750   0.21314516E-02
   0.63850   0.21633697E-02
   0.63950   0.21701250E-02
   0.64050   0.21694959E-02
   0.64150   0.21572784E-02
   0.64250   0.21223826E-02
   0.64350   0.20615722E-02
   0.64450   0.19782388E-02
   0.64550   0.18743039E-02
   0.64650   0.17484155E-02
   0.64750   0.16005265E-02
   0.64850   0.14352080E-02
   0.64950   0.12604138E-02
   0.65050   0.10845736E-02
   0.65150   0.91500190E-03
   0.65250   0.75759413E-03
   0.65350   0.61672291E-03
   0.65450   0.49506931E-03
   0.65550   0.39366138E-03
   0.65650   0.31218561E-03
   0.65750   0.24939142E-03
   0.65850   0.20344554E-03
   0.65950   0.17220552E-03
   0.66050   0.15342250E-03
   0.66150   0.14488165E-03
   0.66250   0.14448997E-03
   0.66350   0.15032773E-03
   0.66450   0.16067570E-03
   0.66550   0.17402488E-03
   0.66650   0.18907337E-03
   0.66750   0.20471765E-03
   0.66850   0.22004489E-03
   0.66950   0.23432757E-03
   0.67050   0.24701576E-03
   0.67150   0.25772178E-03
   0.67250   0.26619589E-03
   0.67350   0.27229803E-03
   0.67450   0.27597309E-03
   0.67550   0.27723404E-03
   0.67650   0.27615397E-03
   0.67750   0.27286261E-03
   0.67850   0.26754208E-03
   0.67950   0.26041907E-03
   0.68050   0.25175227E-03
   0.68150   0.24181785E-03
   0.68250   0.23089358E-03
   0.68350   0.21924077E-03
   0.68450   0.20707208E-03
   0.68550   0.19446187E-03
   0.68650   0.18105969E-03
   0.68750   0.16638837E-03
   0.68850   0.15339802E-03
   0.68950   0.14350063E-03
   0.69050   0.13598301E-03
   0.69150   0.13031553E-03
   0.69250   0.12617804E-03
   0.69350   0.12335743E-03
   0.69450   0.12169895E-03
   0.69550   0.12108385E-03
   0.69650   0.12141906E-03
   0.69750   0.12263253E-03
   0.69850   0.12467225E-03
   0.69950   0.12750825E-03
   0.70050   0.13113818E-03
   0.70150   0.13559955E-03
   0.70250   0.14099329E-03
   0.70350   0.14752467E-03
   0.70450   0.15547161E-03
   0.70550   0.16387730E-03
   0.70650   0.16940360E-03
   0.70750   0.17259287E-03
   0.70850   0.17454091E-03
   0.70950   0.17559192E-03
   0.71050   0.17588247E-03
   0.71150   0.17549713E-03
   0.71250   0.17450844E-03
   0.71350   0.17298805E-03
   0.71450   0.17100936E-03
   0.71550   0.16864743E-03
   0.71650   0.16597760E-03
   0.71750   0.16307402E-03
   0.71850   0.16000815E-03
   0.71950   0.15684740E-03
   0.72050   0.15365404E-03
   0.72150   0.15048444E-03
   0.72250   0.14738852E-03
   0.72350   0.14440958E-03
   0.72450   0.14158433E-03
   0.72550   0.13894330E-03
   0.72650   0.13651171E-03
   0.72750   0.13431080E-03
   0.72850   0.13236061E-03
   0.72950   0.13068579E-03
   0.73050   0.12933071E-03
   0.73150   0.12840648E-03
   0.73250   0.12812504E-03
   0.73350   0.12817352E-03
   0.73450   0.12810501E-03
   0.73550   0.12794454E-03
   0.73650   0.12774623E-03
   0.73750   0.12753943E-03
   0.73850   0.12734048E-03
   0.73950   0.12715977E-03
   0.74050   0.12700525E-03
   0.74150   0.12688412E-03
   0.74250   0.12680386E-03
   0.74350   0.12677273E-03
   0.74450   0.12680008E-03
   0.74550   0.12689646E-03
   0.74650   0.12707374E-03
   0.74750   0.12734515E-03
   0.74850   0.12772514E-03
   0.74950   0.12822941E-03
   0.75050   0.12887482E-03
   0.75150   0.12967923E-03
   0.75250   0.13066147E-03
   0.75350   0.13184120E-03
   0.75450   0.13323878E-03
   0.75550   0.13487514E-03
   0.75650   0.13677173E-03
   0.75750   0.13895034E-03
   0.75850   0.14143297E-03
   0.75950   0.14424176E-03
   0.76050   0.14739884E-03
   0.76150   0.15092625E-03
   0.76250   0.15484578E-03
   0.76350   0.15917890E-03
   0.76450   0.16394665E-03
   0.76550   0.16916951E-03
   0.76650   0.17486735E-03
   0.76750   0.18105937E-03
   0.76850   0.18776396E-03
   0.76950   0.19499878E-03
   0.77050   0.20278069E-03
   0.77150   0.21112592E-03
   0.77250   0.22005021E-03
   0.77350   0.22956922E-03
   0.77450   0.23969921E-03
   0.77550   0.25045799E-03
   0.77650   0.26186672E-03
   0.77750   0.27395200E-03
   0.77850   0.28674805E-03
   0.77950   0.30029210E-03
   0.78050   0.31456561E-03
   0.78150   0.32901290E-03
   0.78250   0.34082608E-03
   0.78350   0.34958895E-03
   0.78450   0.35815273E-03
   0.78550   0.36735108E-03
   0.78650   0.37739516E-03
   0.78750   0.38841620E-03
   0.78850   0.40054903E-03
   0.78950   0.41394553E-03
   0.79050   0.42877535E-03
   0.79150   0.44522400E-03
   0.79250   0.46348988E-03
   0.79350   0.48378092E-03
   0.79450   0.50631061E-03
   0.79550   0.53129409E-03
   0.79650   0.55894448E-03
   0.79750   0.58947032E-03
   0.79850   0.62307587E-03
   0.79950   0.65996521E-03
   0.80050   0.70035289E-03
   0.80150   0.74448390E-03
   0.80250   0.79266599E-03
   0.80350   0.84531930E-03
   0.80450   0.90304948E-03
   0.80550   0.96675748E-03
   0.80650   0.10378109E-02
   0.80750   0.11183363E-02
   0.80850   0.12117804E-02
   0.80950   0.13241608E-02
   0.81050   0.14674127E-02
   0.81150   0.16707722E-02
   0.81250   0.20371017E-02
   0.81350   0.33450695E-02
   0.81450   0.13128293E+00
   0.81550   0.14638213E-01
   0.81650   0.14960047E-01
   0.81750   0.52722115E-02
   0.81850   0.53206175E-02
   0.81950   0.72463448E-02
   0.82050   0.13931638E-01
   0.82150   0.46292905E-01
   0.82250   0.88510230E-01
   0.82350   0.95209971E-01
   0.82450   0.10048393E-01
   0.82550   0.10692695E-01
   0.82650   0.15385184E-01
   0.82750   0.25961936E-01
   0.82850   0.52322466E-01
   0.82950   0.91654062E-01
   0.83050   0.86555116E-01
   0.83150   0.98324470E-01
   0.83250   0.20876175E+00
   0.83350   0.40340048E+00
   0.83450   0.29863650E+00
   0.83550   0.21662305E+00
   0.83650   0.31076333E+00
   0.83750   0.29051679E+00
   0.83850   0.25553578E+00
   0.83950   0.54385281E+00
   0.84050   0.56088543E+00
   0.84150   0.23028608E+00
   0.84250   0.18273728E+00
   0.84350   0.11001215E+00
   0.84450   0.90894334E-01
   0.84550   0.79864383E-01
   0.84650   0.78603089E-01
   0.84750   0.84813222E-01
   0.84850   0.78991078E-01
   0.84950   0.76277278E-01
   0.85050   0.72864138E-01
   0.85150   0.66878602E-01
   0.85250   0.63303791E-01
   0.85350   0.61902203E-01
   0.85450   0.58926601E-01
   0.85550   0.55223942E-01
   0.85650   0.52722208E-01
   0.85750   0.51280323E-01
   0.85850   0.49980454E-01
   0.85950   0.48175100E-01
   0.86050   0.46167988E-01
   0.86150   0.44823803E-01
   0.86250   0.44754207E-01
   0.86350   0.46067774E-01
   0.86450   0.48481464E-01
   0.86550   0.51499505E-01
   0.86650   0.54646410E-01
   0.86750   0.57733219E-01
   0.86850   0.61014336E-01
   0.86950   0.65033682E-01
   0.87050   0.70148185E-01
   0.87150   0.76098911E-01
   0.87250   0.82139693E-01
   0.87350   0.87707877E-01
   0.87450   0.92735991E-01
   0.87550   0.97071141E-01
   0.87650   0.10013520E+00
   0.87750   0.10168140E+00
   0.87850   0.10211143E+00
   0.87950   0.10187943E+00
   0.88050   0.10123526E+00
   0.88150   0.10033722E+00
   0.88250   0.99298805E-01
   0.88350   0.98151959E-01
   0.88450   0.96847139E-01
   0.88550   0.95325492E-01
   0.88650   0.93609624E-01
   0.88750   0.91835961E-01
   0.88850   0.90199761E-01
   0.88950   0.88856511E-01
   0.89050   0.87847225E-01
   0.89150   0.87084219E-01
   0.89250   0.86395577E-01
   0.89350   0.85605875E-01
   0.89450   0.84616512E-01
   0.89550   0.83444074E-01
   0.89650   0.82198478E-01
   0.89750   0.81022866E-01
   0.89850   0.80036789E-01
   0.89950   0.79309799E-01
   0.90050   0.78873396E-01
   0.90150   0.78631915E-01
   0.90250   0.78212723E-01
   0.90350   0.77809021E-01
   0.90450   0.77601582E-01
   0.90550   0.77548221E-01
   0.90650   0.77647507E-01
   0.90750   0.77938609E-01
   0.90850   0.78470096E-01
   0.90950   0.79268627E-01
   0.91050   0.80314569E-01
   0.91150   0.81530750E-01
   0.91250   0.82788609E-01
   0.91350   0.83932847E-01
   0.91450   0.84819794E-01
   0.91550   0.85357182E-01
   0.91650   0.85529640E-01
   0.91750   0.85399456E-01
   0.91850   0.85083172E-01
   0.91950   0.84713921E-01
   0.92050   0.84403783E-01
   0.92150   0.84219590E-01
   0.92250   0.84179036E-01
   0.92350   0.84264390E-01
   0.92450   0.84443286E-01
   0.92550   0.84686458E-01
   0.92650   0.84977113E-01
   0.92750   0.85313514E-01
   0.92850   0.85708760E-01
   0.92950   0.86190544E-01
   0.93050   0.86800300E-01
   0.93150   0.87590039E-01
   0.93250   0.88617153E-01
   0.93350   0.89939363E-01
   0.93450   0.91612510E-01
   0.93550   0.93692072E-01
   0.93650   0.96237056E-01
   0.93750   0.99313252E-01
   0.93850   0.10299275E+00
   0.93950   0.10734775E+00
   0.94050   0.11243896E+00
   0.94150   0.11830215E+00
   0.94250   0.12493891E+00
   0.94350   0.13231896E+00
   0.94450   0.14039989E+00
   0.94550   0.14917639E+00
   0.94650   0.15873782E+00
   0.94750   0.16927227E+00
   0.94850   0.18113090E+00
   0.94950   0.19494769E+00
   0.95050   0.21176018E+00
   0.95150   0.23264912E+00
   0.95250   0.25675273E+00
   0.95350   0.28085962E+00
   0.95450   0.30635509E+00
   0.95550   0.33872524E+00
   0.95650   0.38387933E+00
   0.95750   0.46409154E+00
   0.95850   0.52372885E+00
   0.95950   0.48855466E+00
   0.96050   0.48331118E+00
   0.96150   0.54991418E+00
   0.96250   0.54597127E+00
   0.96350   0.55561996E+00
   0.96450   0.54145163E+00
   0.96550   0.52977145E+00
   0.96650   0.53207290E+00
   0.96750   0.54987240E+00
   0.96850   0.54678851E+00
   0.96950   0.51050115E+00
   0.97050   0.48259804E+00
   0.97150   0.47810259E+00
   0.97250   0.49022484E+00
   0.97350   0.51187748E+00
   0.97450   0.52443659E+00
   0.97550   0.51831275E+00
   0.97650   0.51327461E+00
   0.97750   0.52375203E+00
   0.97850   0.54498261E+00
   0.97950   0.58894879E+00
   0.98050   0.63733459E+00
   0.98150   0.63376874E+00
   0.98250   0.61538523E+00
   0.98350   0.58630556E+00
   0.98450   0.54760510E+00
   0.98550   0.51435828E+00
   0.98650   0.48759383E+00
   0.98750   0.46595997E+00
   0.98850   0.45764577E+00
   0.98950   0.46724510E+00
   0.99050   0.48382223E+00
   0.99150   0.49289653E+00
   0.99250   0.48182154E+00
   0.99350   0.45779327E+00
   0.99450   0.43716928E+00
   0.99550   0.42320946E+00
   0.99650   0.41397163E+00
   0.99750   0.40751588E+00
   0.99850   0.40263733E+00
   0.99950   0.39914861E+00
