# Transmission, k-averaged
# Date: 2021-05-13
#   E [eV]           T [G0]
   0.00050   0.20582606E+00
   0.00150   0.25799471E+00
   0.00250   0.14885803E+00
   0.00350   0.95482670E-01
   0.00450   0.49953330E-01
   0.00550   0.39202962E-01
   0.00650   0.74781269E-01
   0.00750   0.10148861E+00
   0.00850   0.38065460E-01
   0.00950   0.10362433E+00
   0.01050   0.87743685E-01
   0.01150   0.24681579E-01
   0.01250   0.47474202E-01
   0.01350   0.94286740E-01
   0.01450   0.63581057E-01
   0.01550   0.12946150E+00
   0.01650   0.14689149E+00
   0.01750   0.55427931E-01
   0.01850   0.29144116E-01
   0.01950   0.50988801E-01
   0.02050   0.45778546E-01
   0.02150   0.15957624E-01
   0.02250   0.38326383E-01
   0.02350   0.16445579E-01
   0.02450   0.13632067E-01
   0.02550   0.80704942E-01
   0.02650   0.10532150E-01
   0.02750   0.13499470E-01
   0.02850   0.95062047E-01
   0.02950   0.98698176E-02
   0.03050   0.70708296E-02
   0.03150   0.25740605E-01
   0.03250   0.29712388E-01
   0.03350   0.58516725E-02
   0.03450   0.51427004E-02
   0.03550   0.16429329E-01
   0.03650   0.40278725E-01
   0.03750   0.58902656E-02
   0.03850   0.38169122E-02
   0.03950   0.64643715E-02
   0.04050   0.44737864E-01
   0.04150   0.14557592E-01
   0.04250   0.45629130E-02
   0.04350   0.39917701E-02
   0.04450   0.80966558E-02
   0.04550   0.27002618E-01
   0.04650   0.94892122E-02
   0.04750   0.42507341E-02
   0.04850   0.33666266E-02
   0.04950   0.40109083E-02
   0.05050   0.62195822E-02
   0.05150   0.77171996E-02
   0.05250   0.52582338E-02
   0.05350   0.34343116E-02
   0.05450   0.28541039E-02
   0.05550   0.30451987E-02
   0.05650   0.38788756E-02
   0.05750   0.47622132E-02
   0.05850   0.42802691E-02
   0.05950   0.31524908E-02
   0.06050   0.24863938E-02
   0.06150   0.23162500E-02
   0.06250   0.25334067E-02
   0.06350   0.30050220E-02
   0.06450   0.32517801E-02
   0.06550   0.28246413E-02
   0.06650   0.21999427E-02
   0.06750   0.18133773E-02
   0.06850   0.16964428E-02
   0.06950   0.17954380E-02
   0.07050   0.20143888E-02
   0.07150   0.21006956E-02
   0.07250   0.18472187E-02
   0.07350   0.14695491E-02
   0.07450   0.12075086E-02
   0.07550   0.11001761E-02
   0.07650   0.11211111E-02
   0.07750   0.12216582E-02
   0.07850   0.12825374E-02
   0.07950   0.11710369E-02
   0.08050   0.95540110E-03
   0.08150   0.78352046E-03
   0.08250   0.70239924E-03
   0.08350   0.70596702E-03
   0.08450   0.77645294E-03
   0.08550   0.86134271E-03
   0.08650   0.86147361E-03
   0.08750   0.75987296E-03
   0.08850   0.65451325E-03
   0.08950   0.61042979E-03
   0.09050   0.64540631E-03
   0.09150   0.76310814E-03
   0.09250   0.89488085E-03
   0.09350   0.90556574E-03
   0.09450   0.81713108E-03
   0.09550   0.73003903E-03
   0.09650   0.69518259E-03
   0.09750   0.72101399E-03
   0.09850   0.80210221E-03
   0.09950   0.91757707E-03
   0.10050   0.10214320E-02
   0.10150   0.10686992E-02
   0.10250   0.10648804E-02
   0.10350   0.10545100E-02
   0.10450   0.10754564E-02
   0.10550   0.11448788E-02
   0.10650   0.12623634E-02
   0.10750   0.14080288E-02
   0.10850   0.15421085E-02
   0.10950   0.16259990E-02
   0.11050   0.16552107E-02
   0.11150   0.16607421E-02
   0.11250   0.16799335E-02
   0.11350   0.17357625E-02
   0.11450   0.18327051E-02
   0.11550   0.19569639E-02
   0.11650   0.20784873E-02
   0.11750   0.21626605E-02
   0.11850   0.21919373E-02
   0.11950   0.21779286E-02
   0.12050   0.21500855E-02
   0.12150   0.21355811E-02
   0.12250   0.21480375E-02
   0.12350   0.21855445E-02
   0.12450   0.22324685E-02
   0.12550   0.22645635E-02
   0.12650   0.22596600E-02
   0.12750   0.22103486E-02
   0.12850   0.21280688E-02
   0.12950   0.20343941E-02
   0.13050   0.19483536E-02
   0.13150   0.18791400E-02
   0.13250   0.18250060E-02
   0.13350   0.17753895E-02
   0.13450   0.17152039E-02
   0.13550   0.16316578E-02
   0.13650   0.15214600E-02
   0.13750   0.13929788E-02
   0.13850   0.12609176E-02
   0.13950   0.11382952E-02
   0.14050   0.10317651E-02
   0.14150   0.94136869E-03
   0.14250   0.86265564E-03
   0.14350   0.78974111E-03
   0.14450   0.71893190E-03
   0.14550   0.65171858E-03
   0.14650   0.59474399E-03
   0.14750   0.55642304E-03
   0.14850   0.54335681E-03
   0.14950   0.55891112E-03
   0.15050   0.60295936E-03
   0.15150   0.67114469E-03
   0.15250   0.75444620E-03
   0.15350   0.84177183E-03
   0.15450   0.92554581E-03
   0.15550   0.10052024E-02
   0.15650   0.10852023E-02
   0.15750   0.11705203E-02
   0.15850   0.12636635E-02
   0.15950   0.13642509E-02
   0.16050   0.14703179E-02
   0.16150   0.15801559E-02
   0.16250   0.16936181E-02
   0.16350   0.18123295E-02
   0.16450   0.19389930E-02
   0.16550   0.20763993E-02
   0.16650   0.22266267E-02
   0.16750   0.23905740E-02
   0.16850   0.25677334E-02
   0.16950   0.27560615E-02
   0.17050   0.29517915E-02
   0.17150   0.31489877E-02
   0.17250   0.33382832E-02
   0.17350   0.35028046E-02
   0.17450   0.36031071E-02
   0.17550   0.35369385E-02
   0.17650   0.32993960E-02
   0.17750   0.31003354E-02
   0.17850   0.29625411E-02
   0.17950   0.28626514E-02
   0.18050   0.27859958E-02
   0.18150   0.27241029E-02
   0.18250   0.26717568E-02
   0.18350   0.26255460E-02
   0.18450   0.25831633E-02
   0.18550   0.25430515E-02
   0.18650   0.25042058E-02
   0.18750   0.24660407E-02
   0.18850   0.24282848E-02
   0.18950   0.23908827E-02
   0.19050   0.23539017E-02
   0.19150   0.23174533E-02
   0.19250   0.22816265E-02
   0.19350   0.22464481E-02
   0.19450   0.22118627E-02
   0.19550   0.21777365E-02
   0.19650   0.21438764E-02
   0.19750   0.21100617E-02
   0.19850   0.20760787E-02
   0.19950   0.20417499E-02
   0.20050   0.20069557E-02
   0.20150   0.19716404E-02
   0.20250   0.19358041E-02
   0.20350   0.18994816E-02
   0.20450   0.18627112E-02
   0.20550   0.18254992E-02
   0.20650   0.17877857E-02
   0.20750   0.17494127E-02
   0.20850   0.17100998E-02
   0.20950   0.16694238E-02
   0.21050   0.16268018E-02
   0.21150   0.15814686E-02
   0.21250   0.15324391E-02
   0.21350   0.14784358E-02
   0.21450   0.14177553E-02
   0.21550   0.13480693E-02
   0.21650   0.12666796E-02
   0.21750   0.11779116E-02
   0.21850   0.11102603E-02
   0.21950   0.10655714E-02
   0.22050   0.10315841E-02
   0.22150   0.10042957E-02
   0.22250   0.98237407E-03
   0.22350   0.96518779E-03
   0.22450   0.95232541E-03
   0.22550   0.94348285E-03
   0.22650   0.93846669E-03
   0.22750   0.93724142E-03
   0.22850   0.93999231E-03
   0.22950   0.94719476E-03
   0.23050   0.95968740E-03
   0.23150   0.97874319E-03
   0.23250   0.10060122E-02
   0.23350   0.10420741E-02
   0.23450   0.10732657E-02
   0.23550   0.10561184E-02
   0.23650   0.10105504E-02
   0.23750   0.96413767E-03
   0.23850   0.92144654E-03
   0.23950   0.88251283E-03
   0.24050   0.84684300E-03
   0.24150   0.81403117E-03
   0.24250   0.78380952E-03
   0.24350   0.75599470E-03
   0.24450   0.73042867E-03
   0.24550   0.70693612E-03
   0.24650   0.68530475E-03
   0.24750   0.66528469E-03
   0.24850   0.64660195E-03
   0.24950   0.62898058E-03
   0.25050   0.61216648E-03
   0.25150   0.59594912E-03
   0.25250   0.58017613E-03
   0.25350   0.56475826E-03
   0.25450   0.54966490E-03
   0.25550   0.53491129E-03
   0.25650   0.52054052E-03
   0.25750   0.50660461E-03
   0.25850   0.49314747E-03
   0.25950   0.48019268E-03
   0.26050   0.46773790E-03
   0.26150   0.45575446E-03
   0.26250   0.44419264E-03
   0.26350   0.43299075E-03
   0.26450   0.42208581E-03
   0.26550   0.41142467E-03
   0.26650   0.40097337E-03
   0.26750   0.39072358E-03
   0.26850   0.38069556E-03
   0.26950   0.37093714E-03
   0.27050   0.36151952E-03
   0.27150   0.35253121E-03
   0.27250   0.34407096E-03
   0.27350   0.33624098E-03
   0.27450   0.32914180E-03
   0.27550   0.32286835E-03
   0.27650   0.31750830E-03
   0.27750   0.31314144E-03
   0.27850   0.30984016E-03
   0.27950   0.30767027E-03
   0.28050   0.30669165E-03
   0.28150   0.30695839E-03
   0.28250   0.30851783E-03
   0.28350   0.31140909E-03
   0.28450   0.31566038E-03
   0.28550   0.32128565E-03
   0.28650   0.32828088E-03
   0.28750   0.33661979E-03
   0.28850   0.34624970E-03
   0.28950   0.35708706E-03
   0.29050   0.36901303E-03
   0.29150   0.38186763E-03
   0.29250   0.39544087E-03
   0.29350   0.40945376E-03
   0.29450   0.42351239E-03
   0.29550   0.43698447E-03
   0.29650   0.44862364E-03
   0.29750   0.45521860E-03
   0.29850   0.44647985E-03
   0.29950   0.40853058E-03
   0.30050   0.36690492E-03
   0.30150   0.33507601E-03
   0.30250   0.31037690E-03
   0.30350   0.29031129E-03
   0.30450   0.27338709E-03
   0.30550   0.25869446E-03
   0.30650   0.24564913E-03
   0.30750   0.23385799E-03
   0.30850   0.22304665E-03
   0.30950   0.21301782E-03
   0.31050   0.20362646E-03
   0.31150   0.19476398E-03
   0.31250   0.18634780E-03
   0.31350   0.17831438E-03
   0.31450   0.17061426E-03
   0.31550   0.16320842E-03
   0.31650   0.15606570E-03
   0.31750   0.14916093E-03
   0.31850   0.14247345E-03
   0.31950   0.13598608E-03
   0.32050   0.12968441E-03
   0.32150   0.12355637E-03
   0.32250   0.11759186E-03
   0.32350   0.11178268E-03
   0.32450   0.10612259E-03
   0.32550   0.10060735E-03
   0.32650   0.95234944E-04
   0.32750   0.90005837E-04
   0.32850   0.84923260E-04
   0.32950   0.79993457E-04
   0.33050   0.75225995E-04
   0.33150   0.70633992E-04
   0.33250   0.66234330E-04
   0.33350   0.62047809E-04
   0.33450   0.58099198E-04
   0.33550   0.54417254E-04
   0.33650   0.51034556E-04
   0.33750   0.47987221E-04
   0.33850   0.45314380E-04
   0.33950   0.43057407E-04
   0.34050   0.41258809E-04
   0.34150   0.39960771E-04
   0.34250   0.39203362E-04
   0.34350   0.39022500E-04
   0.34450   0.39447827E-04
   0.34550   0.40500730E-04
   0.34650   0.42192791E-04
   0.34750   0.44524833E-04
   0.34850   0.47486825E-04
   0.34950   0.51058607E-04
   0.35050   0.55211407E-04
   0.35150   0.59910020E-04
   0.35250   0.65115426E-04
   0.35350   0.70787726E-04
   0.35450   0.76889315E-04
   0.35550   0.83388324E-04
   0.35650   0.90262707E-04
   0.35750   0.97505799E-04
   0.35850   0.10513553E-03
   0.35950   0.11321313E-03
   0.36050   0.12188903E-03
   0.36150   0.13153099E-03
   0.36250   0.14287244E-03
   0.36350   0.15502228E-03
   0.36450   0.16584626E-03
   0.36550   0.17565108E-03
   0.36650   0.18491906E-03
   0.36750   0.19392945E-03
   0.36850   0.20286853E-03
   0.36950   0.21188469E-03
   0.37050   0.22111391E-03
   0.37150   0.23069458E-03
   0.37250   0.24077907E-03
   0.37350   0.25154563E-03
   0.37450   0.26321394E-03
   0.37550   0.27606767E-03
   0.37650   0.29049040E-03
   0.37750   0.30702574E-03
   0.37850   0.32648296E-03
   0.37950   0.35011469E-03
   0.38050   0.37975275E-03
   0.38150   0.41554141E-03
   0.38250   0.43945282E-03
   0.38350   0.43791046E-03
   0.38450   0.42722229E-03
   0.38550   0.41422277E-03
   0.38650   0.40058713E-03
   0.38750   0.38677483E-03
   0.38850   0.37290857E-03
   0.38950   0.35900265E-03
   0.39050   0.34503517E-03
   0.39150   0.33097496E-03
   0.39250   0.31679374E-03
   0.39350   0.30247329E-03
   0.39450   0.28801116E-03
   0.39550   0.27342650E-03
   0.39650   0.25876638E-03
   0.39750   0.24411293E-03
   0.39850   0.22959057E-03
   0.39950   0.21537293E-03
   0.40050   0.20168789E-03
   0.40150   0.18881902E-03
   0.40250   0.17710094E-03
   0.40350   0.16690642E-03
   0.40450   0.15862327E-03
   0.40550   0.15262060E-03
   0.40650   0.14920674E-03
   0.40750   0.14858283E-03
   0.40850   0.15079869E-03
   0.40950   0.15571344E-03
   0.41050   0.16295108E-03
   0.41150   0.17179751E-03
   0.41250   0.18081514E-03
   0.41350   0.18618628E-03
   0.41450   0.17901057E-03
   0.41550   0.16387849E-03
   0.41650   0.15172035E-03
   0.41750   0.14247732E-03
   0.41850   0.13500107E-03
   0.41950   0.12860961E-03
   0.42050   0.12292892E-03
   0.42150   0.11775212E-03
   0.42250   0.11296322E-03
   0.42350   0.10849630E-03
   0.42450   0.10431290E-03
   0.42550   0.10038930E-03
   0.42650   0.96709271E-04
   0.42750   0.93259951E-04
   0.42850   0.90029615E-04
   0.42950   0.87006512E-04
   0.43050   0.84178355E-04
   0.43150   0.81532184E-04
   0.43250   0.79054465E-04
   0.43350   0.76731274E-04
   0.43450   0.74548530E-04
   0.43550   0.72492257E-04
   0.43650   0.70548755E-04
   0.43750   0.68704823E-04
   0.43850   0.66947876E-04
   0.43950   0.65266009E-04
   0.44050   0.63648076E-04
   0.44150   0.62083651E-04
   0.44250   0.60562987E-04
   0.44350   0.59076956E-04
   0.44450   0.57616940E-04
   0.44550   0.56174700E-04
   0.44650   0.54742235E-04
   0.44750   0.53311644E-04
   0.44850   0.51874944E-04
   0.44950   0.50423940E-04
   0.45050   0.48950042E-04
   0.45150   0.47444159E-04
   0.45250   0.45896573E-04
   0.45350   0.44296936E-04
   0.45450   0.42634350E-04
   0.45550   0.40897674E-04
   0.45650   0.39076145E-04
   0.45750   0.37160531E-04
   0.45850   0.35145003E-04
   0.45950   0.33030119E-04
   0.46050   0.30827079E-04
   0.46150   0.28563412E-04
   0.46250   0.26289474E-04
   0.46350   0.24084180E-04
   0.46450   0.22056638E-04
   0.46550   0.20339150E-04
   0.46650   0.19067862E-04
   0.46750   0.18352152E-04
   0.46850   0.18242083E-04
   0.46950   0.18708957E-04
   0.47050   0.19650286E-04
   0.47150   0.20917514E-04
   0.47250   0.22352648E-04
   0.47350   0.23818255E-04
   0.47450   0.25212874E-04
   0.47550   0.26472875E-04
   0.47650   0.27566181E-04
   0.47750   0.28483277E-04
   0.47850   0.29228782E-04
   0.47950   0.29814966E-04
   0.48050   0.30257317E-04
   0.48150   0.30571780E-04
   0.48250   0.30773186E-04
   0.48350   0.30874420E-04
   0.48450   0.30886040E-04
   0.48550   0.30816096E-04
   0.48650   0.30670053E-04
   0.48750   0.30450619E-04
   0.48850   0.30157515E-04
   0.48950   0.29786961E-04
   0.49050   0.29330839E-04
   0.49150   0.28775325E-04
   0.49250   0.28098761E-04
   0.49350   0.27268714E-04
   0.49450   0.26239219E-04
   0.49550   0.24955150E-04
   0.49650   0.23400502E-04
   0.49750   0.21864153E-04
   0.49850   0.21561540E-04
   0.49950   0.22523787E-04
   0.50050   0.23405446E-04
   0.50150   0.24019628E-04
   0.50250   0.24406212E-04
   0.50350   0.24600971E-04
   0.50450   0.24627030E-04
   0.50550   0.24498044E-04
   0.50650   0.24220300E-04
   0.50750   0.23793804E-04
   0.50850   0.23212815E-04
   0.50950   0.22466178E-04
   0.51050   0.21537840E-04
   0.51150   0.20408188E-04
   0.51250   0.19057399E-04
   0.51350   0.17472757E-04
   0.51450   0.15662403E-04
   0.51550   0.13675834E-04
   0.51650   0.11621856E-04
   0.51750   0.96542281E-05
   0.51850   0.78828007E-05
   0.51950   0.62038807E-05
   0.52050   0.41277221E-05
   0.52150   0.16544708E-05
   0.52250   0.34118642E-06
   0.52350   0.34126919E-06
   0.52450   0.13957118E-05
   0.52550   0.33743609E-05
   0.52650   0.62261224E-05
   0.52750   0.99563804E-05
   0.52850   0.14628410E-04
   0.52950   0.20376170E-04
   0.53050   0.27419961E-04
   0.53150   0.36018297E-04
   0.53250   0.45717654E-04
   0.53350   0.51390194E-04
   0.53450   0.50066337E-04
   0.53550   0.47223952E-04
   0.53650   0.44540324E-04
   0.53750   0.42179116E-04
   0.53850   0.40097915E-04
   0.53950   0.38238592E-04
   0.54050   0.36553105E-04
   0.54150   0.35004239E-04
   0.54250   0.33562799E-04
   0.54350   0.32204891E-04
   0.54450   0.30909727E-04
   0.54550   0.29657735E-04
   0.54650   0.28428780E-04
   0.54750   0.27200231E-04
   0.54850   0.25944721E-04
   0.54950   0.24627645E-04
   0.55050   0.23205250E-04
   0.55150   0.21626023E-04
   0.55250   0.19841564E-04
   0.55350   0.17836410E-04
   0.55450   0.15690372E-04
   0.55550   0.13712891E-04
   0.55650   0.12619660E-04
   0.55750   0.13112573E-04
   0.55850   0.14714970E-04
   0.55950   0.16259972E-04
   0.56050   0.17232993E-04
   0.56150   0.17690307E-04
   0.56250   0.17806509E-04
   0.56350   0.17716282E-04
   0.56450   0.17503628E-04
   0.56550   0.17218406E-04
   0.56650   0.16890237E-04
   0.56750   0.16537015E-04
   0.56850   0.16169774E-04
   0.56950   0.15795433E-04
   0.57050   0.15418374E-04
   0.57150   0.15041346E-04
   0.57250   0.14665960E-04
   0.57350   0.14292925E-04
   0.57450   0.13921981E-04
   0.57550   0.13551396E-04
   0.57650   0.13176405E-04
   0.57750   0.12784753E-04
   0.57850   0.12344347E-04
   0.57950   0.11786233E-04
   0.58050   0.11207011E-04
   0.58150   0.11193681E-04
   0.58250   0.11336540E-04
   0.58350   0.11415601E-04
   0.58450   0.11548177E-04
   0.58550   0.11532032E-04
   0.58650   0.10635858E-04
   0.58750   0.95255054E-05
   0.58850   0.88578217E-05
   0.58950   0.84237463E-05
   0.59050   0.80740983E-05
   0.59150   0.77562199E-05
   0.59250   0.74523487E-05
   0.59350   0.71565350E-05
   0.59450   0.68672134E-05
   0.59550   0.65847184E-05
   0.59650   0.63104521E-05
   0.59750   0.60466882E-05
   0.59850   0.57967231E-05
   0.59950   0.55654100E-05
   0.60050   0.53604917E-05
   0.60150   0.51962556E-05
   0.60250   0.51055149E-05
   0.60350   0.51846523E-05
   0.60450   0.55982828E-05
   0.60550   0.52242713E-05
   0.60650   0.47774201E-05
   0.60750   0.47559620E-05
   0.60850   0.49377418E-05
   0.60950   0.52953055E-05
   0.61050   0.58614851E-05
   0.61150   0.67012816E-05
   0.61250   0.79168185E-05
   0.61350   0.96688609E-05
   0.61450   0.12223711E-04
   0.61550   0.16058490E-04
   0.61650   0.22113727E-04
   0.61750   0.32192718E-04
   0.61850   0.45840905E-04
   0.61950   0.56303354E-04
   0.62050   0.63663290E-04
   0.62150   0.69573522E-04
   0.62250   0.74737800E-04
   0.62350   0.79462712E-04
   0.62450   0.83897692E-04
   0.62550   0.88138768E-04
   0.62650   0.92249524E-04
   0.62750   0.96273790E-04
   0.62850   0.10024351E-03
   0.62950   0.10418303E-03
   0.63050   0.10811166E-03
   0.63150   0.11204526E-03
   0.63250   0.11599723E-03
   0.63350   0.11997919E-03
   0.63450   0.12400144E-03
   0.63550   0.12807336E-03
   0.63650   0.13220355E-03
   0.63750   0.13640018E-03
   0.63850   0.14067099E-03
   0.63950   0.14502347E-03
   0.64050   0.14946501E-03
   0.64150   0.15400289E-03
   0.64250   0.15864444E-03
   0.64350   0.16339704E-03
   0.64450   0.16826823E-03
   0.64550   0.17326575E-03
   0.64650   0.17839763E-03
   0.64750   0.18367216E-03
   0.64850   0.18909805E-03
   0.64950   0.19468446E-03
   0.65050   0.20044102E-03
   0.65150   0.20637798E-03
   0.65250   0.21250626E-03
   0.65350   0.21883745E-03
   0.65450   0.22538406E-03
   0.65550   0.23215951E-03
   0.65650   0.23917826E-03
   0.65750   0.24645601E-03
   0.65850   0.25400979E-03
   0.65950   0.26185813E-03
   0.66050   0.27002132E-03
   0.66150   0.27852159E-03
   0.66250   0.28738336E-03
   0.66350   0.29663366E-03
   0.66450   0.30630236E-03
   0.66550   0.31642275E-03
   0.66650   0.32703194E-03
   0.66750   0.33817158E-03
   0.66850   0.34988858E-03
   0.66950   0.36223605E-03
   0.67050   0.37527445E-03
   0.67150   0.38907310E-03
   0.67250   0.40371181E-03
   0.67350   0.41928329E-03
   0.67450   0.43589610E-03
   0.67550   0.45367854E-03
   0.67650   0.47278358E-03
   0.67750   0.49339602E-03
   0.67850   0.51574165E-03
   0.67950   0.54010039E-03
   0.68050   0.56682446E-03
   0.68150   0.59636275E-03
   0.68250   0.62929187E-03
   0.68350   0.66633744E-03
   0.68450   0.70829171E-03
   0.68550   0.75522438E-03
   0.68650   0.80067979E-03
   0.68750   0.80931780E-03
   0.68850   0.77263761E-03
   0.68950   0.73213986E-03
   0.69050   0.69754751E-03
   0.69150   0.66871749E-03
   0.69250   0.64462406E-03
   0.69350   0.62441878E-03
   0.69450   0.60749432E-03
   0.69550   0.59343781E-03
   0.69650   0.58198976E-03
   0.69750   0.57302078E-03
   0.69850   0.56652800E-03
   0.69950   0.56265329E-03
   0.70050   0.56173443E-03
   0.70150   0.56441891E-03
   0.70250   0.57191611E-03
   0.70350   0.58657298E-03
   0.70450   0.61279925E-03
   0.70550   0.65011292E-03
   0.70650   0.67383080E-03
   0.70750   0.68206602E-03
   0.70850   0.68376982E-03
   0.70950   0.68264408E-03
   0.71050   0.68020506E-03
   0.71150   0.67717402E-03
   0.71250   0.67393493E-03
   0.71350   0.67070895E-03
   0.71450   0.66763075E-03
   0.71550   0.66478556E-03
   0.71650   0.66222891E-03
   0.71750   0.65999798E-03
   0.71850   0.65811770E-03
   0.71950   0.65660529E-03
   0.72050   0.65547263E-03
   0.72150   0.65472792E-03
   0.72250   0.65437699E-03
   0.72350   0.65442396E-03
   0.72450   0.65487187E-03
   0.72550   0.65572292E-03
   0.72650   0.65697898E-03
   0.72750   0.65864151E-03
   0.72850   0.66071190E-03
   0.72950   0.66319155E-03
   0.73050   0.66608191E-03
   0.73150   0.66938275E-03
   0.73250   0.67307998E-03
   0.73350   0.67714596E-03
   0.73450   0.68159698E-03
   0.73550   0.68644842E-03
   0.73650   0.69170602E-03
   0.73750   0.69737271E-03
   0.73850   0.70345087E-03
   0.73950   0.70994243E-03
   0.74050   0.71684917E-03
   0.74150   0.72417298E-03
   0.74250   0.73191553E-03
   0.74350   0.74007857E-03
   0.74450   0.74866402E-03
   0.74550   0.75767370E-03
   0.74650   0.76710980E-03
   0.74750   0.77697454E-03
   0.74850   0.78727060E-03
   0.74950   0.79800107E-03
   0.75050   0.80916972E-03
   0.75150   0.82078110E-03
   0.75250   0.83284103E-03
   0.75350   0.84535655E-03
   0.75450   0.85833680E-03
   0.75550   0.87179325E-03
   0.75650   0.88574056E-03
   0.75750   0.90019713E-03
   0.75850   0.91518648E-03
   0.75950   0.93073811E-03
   0.76050   0.94688928E-03
   0.76150   0.96368679E-03
   0.76250   0.98118908E-03
   0.76350   0.99946931E-03
   0.76450   0.10186182E-02
   0.76550   0.10387485E-02
   0.76650   0.10599992E-02
   0.76750   0.10825411E-02
   0.76850   0.11065829E-02
   0.76950   0.11323780E-02
   0.77050   0.11602310E-02
   0.77150   0.11905032E-02
   0.77250   0.12236151E-02
   0.77350   0.12600399E-02
   0.77450   0.13002799E-02
   0.77550   0.13448083E-02
   0.77650   0.13939346E-02
   0.77750   0.14475157E-02
   0.77850   0.15043261E-02
   0.77950   0.15606873E-02
   0.78050   0.16077835E-02
   0.78150   0.16344836E-02
   0.78250   0.17615469E-02
   0.78350   0.49946569E-02
   0.78450   0.32339464E-02
   0.78550   0.83874492E-02
   0.78650   0.56775389E-02
   0.78750   0.76011438E-02
   0.78850   0.10747390E-01
   0.78950   0.14622200E-01
   0.79050   0.21783251E-01
   0.79150   0.30469401E-01
   0.79250   0.14399257E-01
   0.79350   0.16064597E-01
   0.79450   0.22906680E-01
   0.79550   0.33914670E-01
   0.79650   0.59508815E-01
   0.79750   0.79459146E-01
   0.79850   0.16870871E+00
   0.79950   0.15819824E+00
   0.80050   0.35136250E+00
   0.80150   0.32060602E+00
   0.80250   0.67228734E+00
   0.80350   0.85458356E+00
   0.80450   0.72138643E+00
   0.80550   0.58508122E+00
   0.80650   0.56723350E+00
   0.80750   0.45138088E+00
   0.80850   0.48725685E+00
   0.80950   0.44834027E+00
   0.81050   0.26344997E+00
   0.81150   0.24720065E+00
   0.81250   0.32109609E+00
   0.81350   0.24416897E+00
   0.81450   0.22456829E+00
   0.81550   0.18446858E+00
   0.81650   0.19985701E+00
   0.81750   0.27132982E+00
   0.81850   0.40370426E+00
   0.81950   0.39003739E+00
   0.82050   0.33084700E+00
   0.82150   0.28776145E+00
   0.82250   0.29883894E+00
   0.82350   0.27864122E+00
   0.82450   0.26722869E+00
   0.82550   0.25860903E+00
   0.82650   0.30290353E+00
   0.82750   0.33378667E+00
   0.82850   0.38438353E+00
   0.82950   0.42917201E+00
   0.83050   0.46893057E+00
   0.83150   0.46504909E+00
   0.83250   0.56847942E+00
   0.83350   0.52067965E+00
   0.83450   0.47375453E+00
   0.83550   0.45149097E+00
   0.83650   0.48370114E+00
   0.83750   0.48574609E+00
   0.83850   0.49971050E+00
   0.83950   0.47735989E+00
   0.84050   0.44683754E+00
   0.84150   0.45798576E+00
   0.84250   0.45286259E+00
   0.84350   0.42708886E+00
   0.84450   0.44493830E+00
   0.84550   0.49610001E+00
   0.84650   0.56840503E+00
   0.84750   0.66705930E+00
   0.84850   0.80501026E+00
   0.84950   0.84598505E+00
   0.85050   0.85508674E+00
   0.85150   0.93849480E+00
   0.85250   0.97033209E+00
   0.85350   0.92094350E+00
   0.85450   0.10036383E+01
   0.85550   0.10897361E+01
   0.85650   0.10480289E+01
   0.85750   0.10495982E+01
   0.85850   0.11255195E+01
   0.85950   0.11205820E+01
   0.86050   0.10655885E+01
   0.86150   0.86691535E+00
   0.86250   0.83732671E+00
   0.86350   0.78556836E+00
   0.86450   0.80668050E+00
   0.86550   0.72286785E+00
   0.86650   0.60988694E+00
   0.86750   0.54802668E+00
   0.86850   0.49254072E+00
   0.86950   0.45893061E+00
   0.87050   0.42186472E+00
   0.87150   0.39715713E+00
   0.87250   0.35779309E+00
   0.87350   0.29813391E+00
   0.87450   0.27712932E+00
   0.87550   0.26500562E+00
   0.87650   0.24845232E+00
   0.87750   0.22976652E+00
   0.87850   0.21493122E+00
   0.87950   0.20784388E+00
   0.88050   0.20672783E+00
   0.88150   0.20378281E+00
   0.88250   0.19949669E+00
   0.88350   0.20334992E+00
   0.88450   0.20298371E+00
   0.88550   0.17922117E+00
   0.88650   0.16019280E+00
   0.88750   0.14681572E+00
   0.88850   0.13664776E+00
   0.88950   0.12856887E+00
   0.89050   0.12166428E+00
   0.89150   0.11541568E+00
   0.89250   0.10971411E+00
   0.89350   0.10462853E+00
   0.89450   0.10021418E+00
   0.89550   0.96461780E-01
   0.89650   0.93318239E-01
   0.89750   0.90714671E-01
   0.89850   0.88586614E-01
   0.89950   0.86895116E-01
   0.90050   0.85660957E-01
   0.90150   0.84875979E-01
   0.90250   0.83946228E-01
   0.90350   0.82097664E-01
   0.90450   0.79722375E-01
   0.90550   0.77096872E-01
   0.90650   0.74354276E-01
   0.90750   0.71813643E-01
   0.90850   0.70302032E-01
   0.90950   0.70966043E-01
   0.91050   0.73688768E-01
   0.91150   0.76333255E-01
   0.91250   0.76687343E-01
   0.91350   0.74824192E-01
   0.91450   0.72510108E-01
   0.91550   0.70663527E-01
   0.91650   0.69359943E-01
   0.91750   0.68481781E-01
   0.91850   0.67920953E-01
   0.91950   0.67599185E-01
   0.92050   0.67459226E-01
   0.92150   0.67457527E-01
   0.92250   0.67560263E-01
   0.92350   0.67741051E-01
   0.92450   0.67979403E-01
   0.92550   0.68259463E-01
   0.92650   0.68569049E-01
   0.92750   0.68898842E-01
   0.92850   0.69241844E-01
   0.92950   0.69592930E-01
   0.93050   0.69948532E-01
   0.93150   0.70306465E-01
   0.93250   0.70665784E-01
   0.93350   0.71026668E-01
   0.93450   0.71390383E-01
   0.93550   0.71759172E-01
   0.93650   0.72136141E-01
   0.93750   0.72525151E-01
   0.93850   0.72930664E-01
   0.93950   0.73357709E-01
   0.94050   0.73812097E-01
   0.94150   0.74301191E-01
   0.94250   0.74836776E-01
   0.94350   0.75445734E-01
   0.94450   0.76210074E-01
   0.94550   0.77215448E-01
   0.94650   0.78286417E-01
   0.94750   0.79344712E-01
   0.94850   0.80399029E-01
   0.94950   0.81461377E-01
   0.95050   0.82540758E-01
   0.95150   0.83644278E-01
   0.95250   0.84778123E-01
   0.95350   0.85948229E-01
   0.95450   0.87161176E-01
   0.95550   0.88423267E-01
   0.95650   0.89726746E-01
   0.95750   0.91065474E-01
   0.95850   0.92445344E-01
   0.95950   0.93870156E-01
   0.96050   0.95341295E-01
   0.96150   0.96858606E-01
   0.96250   0.98420836E-01
   0.96350   0.10002623E+00
   0.96450   0.10167306E+00
   0.96550   0.10336039E+00
   0.96650   0.10508876E+00
   0.96750   0.10686081E+00
   0.96850   0.10868169E+00
   0.96950   0.11055895E+00
   0.97050   0.11250165E+00
   0.97150   0.11451814E+00
   0.97250   0.11661150E+00
   0.97350   0.11876947E+00
   0.97450   0.12094170E+00
   0.97550   0.12305644E+00
   0.97650   0.12535909E+00
   0.97750   0.12803409E+00
   0.97850   0.13100705E+00
   0.97950   0.13422510E+00
   0.98050   0.13766007E+00
   0.98150   0.14129350E+00
   0.98250   0.14510603E+00
   0.98350   0.14906403E+00
   0.98450   0.15310133E+00
   0.98550   0.15710144E+00
   0.98650   0.16089357E+00
   0.98750   0.16428007E+00
   0.98850   0.16710739E+00
   0.98950   0.16934146E+00
   0.99050   0.17103669E+00
   0.99150   0.17239985E+00
   0.99250   0.17375512E+00
   0.99350   0.17542885E+00
   0.99450   0.17739324E+00
   0.99550   0.17958401E+00
   0.99650   0.18237108E+00
   0.99750   0.18599114E+00
   0.99850   0.19057870E+00
   0.99950   0.19622438E+00
