# Transmission, k-averaged
# Date: 2021-05-13
#   E [eV]           T [G0]
   0.00050   0.20626725E+00
   0.00150   0.77844761E-01
   0.00250   0.21040633E+00
   0.00350   0.30752331E+00
   0.00450   0.13204451E+00
   0.00550   0.14066142E+00
   0.00650   0.16828093E+00
   0.00750   0.19567971E+00
   0.00850   0.19877107E+00
   0.00950   0.29753375E+00
   0.01050   0.24611875E+00
   0.01150   0.34154481E+00
   0.01250   0.24567905E+00
   0.01350   0.36300322E+00
   0.01450   0.24273646E+00
   0.01550   0.29586670E+00
   0.01650   0.29715315E+00
   0.01750   0.20110077E+00
   0.01850   0.32454836E+00
   0.01950   0.18417466E+00
   0.02050   0.16701454E+00
   0.02150   0.25489619E+00
   0.02250   0.11444051E+00
   0.02350   0.11687344E+00
   0.02450   0.19537878E+00
   0.02550   0.87995574E-01
   0.02650   0.66448890E-01
   0.02750   0.11556708E+00
   0.02850   0.11235151E+00
   0.02950   0.49868219E-01
   0.03050   0.42733204E-01
   0.03150   0.73430516E-01
   0.03250   0.93713172E-01
   0.03350   0.38764134E-01
   0.03450   0.24649013E-01
   0.03550   0.29417044E-01
   0.03650   0.61464731E-01
   0.03750   0.56279574E-01
   0.03850   0.21585945E-01
   0.03950   0.13984653E-01
   0.04050   0.16347261E-01
   0.04150   0.35996173E-01
   0.04250   0.42276837E-01
   0.04350   0.12353779E-01
   0.04450   0.61036148E-02
   0.04550   0.49114884E-02
   0.04650   0.57895361E-02
   0.04750   0.63860896E-02
   0.04850   0.31370937E-02
   0.04950   0.13783880E-02
   0.05050   0.82361681E-03
   0.05150   0.67350332E-03
   0.05250   0.70396956E-03
   0.05350   0.73116465E-03
   0.05450   0.50040911E-03
   0.05550   0.27151589E-03
   0.05650   0.16973655E-03
   0.05750   0.13496482E-03
   0.05850   0.13323715E-03
   0.05950   0.14331727E-03
   0.06050   0.13005651E-03
   0.06150   0.93596122E-04
   0.06250   0.67439367E-04
   0.06350   0.56637466E-04
   0.06450   0.56527759E-04
   0.06550   0.63305226E-04
   0.06650   0.70121205E-04
   0.06750   0.68090696E-04
   0.06850   0.59664791E-04
   0.06950   0.53188083E-04
   0.07050   0.51857140E-04
   0.07150   0.55702207E-04
   0.07250   0.63356340E-04
   0.07350   0.71004230E-04
   0.07450   0.73780677E-04
   0.07550   0.71631956E-04
   0.07650   0.69034795E-04
   0.07750   0.69581365E-04
   0.07850   0.74699237E-04
   0.07950   0.84268620E-04
   0.08050   0.96134929E-04
   0.08150   0.10593803E-03
   0.08250   0.11051053E-03
   0.08350   0.11163648E-03
   0.08450   0.11395587E-03
   0.08550   0.12134700E-03
   0.08650   0.13609431E-03
   0.08750   0.15862234E-03
   0.08850   0.18583515E-03
   0.08950   0.21028100E-03
   0.09050   0.22516705E-03
   0.09150   0.22901695E-03
   0.09250   0.21797084E-03
   0.09350   0.20383953E-03
   0.09450   0.19852462E-03
   0.09550   0.19853121E-03
   0.09650   0.19770398E-03
   0.09750   0.19157452E-03
   0.09850   0.18021352E-03
   0.09950   0.16734854E-03
   0.10050   0.15680089E-03
   0.10150   0.15049663E-03
   0.10250   0.14855615E-03
   0.10350   0.14980875E-03
   0.10450   0.15209558E-03
   0.10550   0.15281443E-03
   0.10650   0.15014518E-03
   0.10750   0.14420225E-03
   0.10850   0.13678597E-03
   0.10950   0.13000579E-03
   0.11050   0.12522668E-03
   0.11150   0.12284203E-03
   0.11250   0.12243049E-03
   0.11350   0.12294750E-03
   0.11450   0.12300233E-03
   0.11550   0.12138700E-03
   0.11650   0.11770013E-03
   0.11750   0.11254197E-03
   0.11850   0.10706462E-03
   0.11950   0.10232419E-03
   0.12050   0.98916455E-04
   0.12150   0.96930504E-04
   0.12250   0.96034346E-04
   0.12350   0.95593125E-04
   0.12450   0.94849413E-04
   0.12550   0.93199815E-04
   0.12650   0.90466754E-04
   0.12750   0.86963948E-04
   0.12850   0.83292412E-04
   0.12950   0.80039928E-04
   0.13050   0.77581935E-04
   0.13150   0.76025681E-04
   0.13250   0.75235293E-04
   0.13350   0.74887685E-04
   0.13450   0.74559030E-04
   0.13550   0.73856652E-04
   0.13650   0.72569055E-04
   0.13750   0.70751237E-04
   0.13850   0.68681395E-04
   0.13950   0.66721594E-04
   0.14050   0.65177308E-04
   0.14150   0.64217587E-04
   0.14250   0.63854539E-04
   0.14350   0.63956555E-04
   0.14450   0.64283660E-04
   0.14550   0.64550681E-04
   0.14650   0.64518885E-04
   0.14750   0.64086576E-04
   0.14850   0.63327774E-04
   0.14950   0.62452702E-04
   0.15050   0.61717612E-04
   0.15150   0.61336636E-04
   0.15250   0.61427505E-04
   0.15350   0.61991494E-04
   0.15450   0.62917556E-04
   0.15550   0.64008593E-04
   0.15650   0.65034728E-04
   0.15750   0.65809625E-04
   0.15850   0.66262372E-04
   0.15950   0.66465909E-04
   0.16050   0.66604494E-04
   0.16150   0.66901383E-04
   0.16250   0.67545028E-04
   0.16350   0.68638030E-04
   0.16450   0.70172813E-04
   0.16550   0.72031158E-04
   0.16650   0.74010168E-04
   0.16750   0.75878277E-04
   0.16850   0.77451288E-04
   0.16950   0.78655292E-04
   0.17050   0.79535683E-04
   0.17150   0.80192120E-04
   0.17250   0.80638354E-04
   0.17350   0.80539634E-04
   0.17450   0.78527890E-04
   0.17550   0.70707007E-04
   0.17650   0.57741792E-04
   0.17750   0.47869147E-04
   0.17850   0.41153598E-04
   0.17950   0.36327019E-04
   0.18050   0.32691831E-04
   0.18150   0.29871162E-04
   0.18250   0.27641967E-04
   0.18350   0.25858420E-04
   0.18450   0.24416468E-04
   0.18550   0.23237111E-04
   0.18650   0.22258651E-04
   0.18750   0.21433150E-04
   0.18850   0.20724729E-04
   0.18950   0.20108233E-04
   0.19050   0.19567577E-04
   0.19150   0.19093528E-04
   0.19250   0.18681141E-04
   0.19350   0.18327268E-04
   0.19450   0.18028546E-04
   0.19550   0.17780147E-04
   0.19650   0.17575316E-04
   0.19750   0.17405608E-04
   0.19850   0.17261576E-04
   0.19950   0.17133660E-04
   0.20050   0.17013006E-04
   0.20150   0.16892060E-04
   0.20250   0.16764810E-04
   0.20350   0.16626736E-04
   0.20450   0.16474512E-04
   0.20550   0.16305592E-04
   0.20650   0.16117763E-04
   0.20750   0.15908741E-04
   0.20850   0.15675794E-04
   0.20950   0.15415428E-04
   0.21050   0.15123114E-04
   0.21150   0.14793030E-04
   0.21250   0.14417708E-04
   0.21350   0.13987274E-04
   0.21450   0.13487498E-04
   0.21550   0.12894620E-04
   0.21650   0.12162616E-04
   0.21750   0.11237795E-04
   0.21850   0.10334227E-04
   0.21950   0.96495851E-05
   0.22050   0.91034717E-05
   0.22150   0.86399141E-05
   0.22250   0.82340630E-05
   0.22350   0.78748963E-05
   0.22450   0.75581356E-05
   0.22550   0.72829698E-05
   0.22650   0.70502779E-05
   0.22750   0.68616678E-05
   0.22850   0.67191213E-05
   0.22950   0.66251996E-05
   0.23050   0.65838035E-05
   0.23150   0.66013076E-05
   0.23250   0.66861821E-05
   0.23350   0.68303116E-05
   0.23450   0.68416834E-05
   0.23550   0.62087197E-05
   0.23650   0.53046847E-05
   0.23750   0.44969265E-05
   0.23850   0.38236549E-05
   0.23950   0.32666712E-05
   0.24050   0.28038151E-05
   0.24150   0.24162071E-05
   0.24250   0.20888247E-05
   0.24350   0.18100192E-05
   0.24450   0.15708993E-05
   0.24550   0.13647399E-05
   0.24650   0.11864427E-05
   0.24750   0.10320664E-05
   0.24850   0.89844752E-06
   0.24950   0.78292396E-06
   0.25050   0.68316041E-06
   0.25150   0.59705718E-06
   0.25250   0.52271588E-06
   0.25350   0.45843581E-06
   0.25450   0.40272076E-06
   0.25550   0.35428332E-06
   0.25650   0.31204087E-06
   0.25750   0.27510114E-06
   0.25850   0.24273859E-06
   0.25950   0.21436452E-06
   0.26050   0.18949490E-06
   0.26150   0.16772057E-06
   0.26250   0.14868317E-06
   0.26350   0.13205887E-06
   0.26450   0.11754971E-06
   0.26550   0.10488090E-06
   0.26650   0.93801731E-07
   0.26750   0.84087937E-07
   0.26850   0.75543745E-07
   0.26950   0.68002677E-07
   0.27050   0.61326816E-07
   0.27150   0.55404378E-07
   0.27250   0.50146024E-07
   0.27350   0.45480306E-07
   0.27450   0.41348859E-07
   0.27550   0.37701998E-07
   0.27650   0.34495198E-07
   0.27750   0.31686771E-07
   0.27850   0.29236714E-07
   0.27950   0.27106568E-07
   0.28050   0.25259840E-07
   0.28150   0.23662711E-07
   0.28250   0.22284684E-07
   0.28350   0.21099035E-07
   0.28450   0.20082952E-07
   0.28550   0.19217406E-07
   0.28650   0.18486784E-07
   0.28750   0.17878397E-07
   0.28850   0.17381932E-07
   0.28950   0.16988915E-07
   0.29050   0.16692242E-07
   0.29150   0.16485663E-07
   0.29250   0.16363012E-07
   0.29350   0.16316591E-07
   0.29450   0.16333260E-07
   0.29550   0.16384364E-07
   0.29650   0.16396779E-07
   0.29750   0.16155687E-07
   0.29850   0.14979175E-07
   0.29950   0.12198423E-07
   0.30050   0.97035802E-08
   0.30150   0.80757907E-08
   0.30250   0.69793882E-08
   0.30350   0.61978382E-08
   0.30450   0.56136420E-08
   0.30550   0.51592610E-08
   0.30650   0.47937476E-08
   0.30750   0.44916684E-08
   0.30850   0.42373762E-08
   0.30950   0.40216888E-08
   0.31050   0.38396775E-08
   0.31150   0.36889933E-08
   0.31250   0.35684935E-08
   0.31350   0.34771004E-08
   0.31450   0.34129193E-08
   0.31550   0.33726595E-08
   0.31650   0.33514094E-08
   0.31750   0.33427765E-08
   0.31850   0.33393557E-08
   0.31950   0.33334431E-08
   0.32050   0.33178631E-08
   0.32150   0.32867749E-08
   0.32250   0.32363159E-08
   0.32350   0.31649880E-08
   0.32450   0.30737330E-08
   0.32550   0.29657008E-08
   0.32650   0.28457638E-08
   0.32750   0.27198588E-08
   0.32850   0.25942588E-08
   0.32950   0.24748719E-08
   0.33050   0.23666462E-08
   0.33150   0.22731423E-08
   0.33250   0.21962980E-08
   0.33350   0.21363922E-08
   0.33450   0.20921869E-08
   0.33550   0.20612094E-08
   0.33650   0.20401307E-08
   0.33750   0.20251860E-08
   0.33850   0.20125948E-08
   0.33950   0.19989319E-08
   0.34050   0.19814301E-08
   0.34150   0.19581836E-08
   0.34250   0.19282589E-08
   0.34350   0.18917057E-08
   0.34450   0.18494899E-08
   0.34550   0.18033572E-08
   0.34650   0.17556548E-08
   0.34750   0.17091251E-08
   0.34850   0.16666948E-08
   0.34950   0.16312730E-08
   0.35050   0.16055726E-08
   0.35150   0.15919654E-08
   0.35250   0.15923781E-08
   0.35350   0.16082332E-08
   0.35450   0.16404396E-08
   0.35550   0.16894325E-08
   0.35650   0.17552703E-08
   0.35750   0.18377976E-08
   0.35850   0.19369186E-08
   0.35950   0.20531237E-08
   0.36050   0.21888453E-08
   0.36150   0.23535125E-08
   0.36250   0.25848885E-08
   0.36350   0.29351692E-08
   0.36450   0.33538372E-08
   0.36550   0.38162145E-08
   0.36650   0.43299648E-08
   0.36750   0.49091176E-08
   0.36850   0.55718705E-08
   0.36950   0.63416432E-08
   0.37050   0.72485569E-08
   0.37150   0.83310594E-08
   0.37250   0.96377279E-08
   0.37350   0.11229419E-07
   0.37450   0.13182189E-07
   0.37550   0.15591963E-07
   0.37650   0.18583066E-07
   0.37750   0.22324961E-07
   0.37850   0.27065989E-07
   0.37950   0.33199278E-07
   0.38050   0.41348891E-07
   0.38150   0.51828078E-07
   0.38250   0.59603448E-07
   0.38350   0.60022785E-07
   0.38450   0.57507613E-07
   0.38550   0.54097104E-07
   0.38650   0.50392011E-07
   0.38750   0.46654065E-07
   0.38850   0.43038213E-07
   0.38950   0.39643933E-07
   0.39050   0.36528650E-07
   0.39150   0.33714347E-07
   0.39250   0.31194599E-07
   0.39350   0.28942791E-07
   0.39450   0.26920654E-07
   0.39550   0.25086061E-07
   0.39650   0.23399323E-07
   0.39750   0.21827608E-07
   0.39850   0.20347500E-07
   0.39950   0.18945849E-07
   0.40050   0.17619264E-07
   0.40150   0.16372590E-07
   0.40250   0.15216717E-07
   0.40350   0.14166028E-07
   0.40450   0.13235765E-07
   0.40550   0.12439458E-07
   0.40650   0.11786573E-07
   0.40750   0.11280351E-07
   0.40850   0.10915634E-07
   0.40950   0.10676047E-07
   0.41050   0.10528618E-07
   0.41150   0.10409829E-07
   0.41250   0.10180583E-07
   0.41350   0.94639567E-08
   0.41450   0.75697137E-08
   0.41550   0.54703846E-08
   0.41650   0.40874935E-08
   0.41750   0.31764140E-08
   0.41850   0.25359990E-08
   0.41950   0.20637521E-08
   0.42050   0.17053847E-08
   0.42150   0.14301602E-08
   0.42250   0.12195700E-08
   0.42350   0.10617431E-08
   0.42450   0.94845276E-09
   0.42550   0.87337798E-09
   0.42650   0.83100898E-09
   0.42750   0.81589907E-09
   0.42850   0.82212492E-09
   0.42950   0.84291063E-09
   0.43050   0.87043883E-09
   0.43150   0.89593594E-09
   0.43250   0.91015645E-09
   0.43350   0.90438085E-09
   0.43450   0.87192487E-09
   0.43550   0.80990231E-09
   0.43650   0.72064493E-09
   0.43750   0.61197364E-09
   0.43850   0.49574050E-09
   0.43950   0.38482764E-09
   0.44050   0.28972055E-09
   0.44150   0.21613467E-09
   0.44250   0.16458669E-09
   0.44350   0.13170157E-09
   0.44450   0.11227463E-09
   0.44550   0.10109323E-09
   0.44650   0.94011257E-10
   0.44750   0.88280723E-10
   0.44850   0.82403799E-10
   0.44950   0.75787661E-10
   0.45050   0.68390932E-10
   0.45150   0.60447397E-10
   0.45250   0.52284468E-10
   0.45350   0.44221123E-10
   0.45450   0.36521453E-10
   0.45550   0.29382007E-10
   0.45650   0.22937192E-10
   0.45750   0.17272607E-10
   0.45850   0.12440596E-10
   0.45950   0.84751251E-11
   0.46050   0.54048519E-11
   0.46150   0.32641051E-11
   0.46250   0.21018836E-11
   0.46350   0.19889151E-11
   0.46450   0.30223940E-11
   0.46550   0.53270721E-11
   0.46650   0.90495701E-11
   0.46750   0.14339525E-10
   0.46850   0.21305681E-10
   0.46950   0.29926821E-10
   0.47050   0.39888936E-10
   0.47150   0.50324113E-10
   0.47250   0.59482280E-10
   0.47350   0.64553453E-10
   0.47450   0.62216426E-10
   0.47550   0.50650758E-10
   0.47650   0.32509665E-10
   0.47750   0.15439316E-10
   0.47850   0.70649060E-11
   0.47950   0.88656140E-11
   0.48050   0.16382644E-10
   0.48150   0.24235166E-10
   0.48250   0.29459019E-10
   0.48350   0.31533304E-10
   0.48450   0.31158146E-10
   0.48550   0.29301932E-10
   0.48650   0.26777724E-10
   0.48750   0.24144941E-10
   0.48850   0.21741071E-10
   0.48950   0.19743523E-10
   0.49050   0.18225138E-10
   0.49150   0.17195214E-10
   0.49250   0.16627734E-10
   0.49350   0.16480812E-10
   0.49450   0.16711571E-10
   0.49550   0.17291179E-10
   0.49650   0.18227350E-10
   0.49750   0.19608849E-10
   0.49850   0.21719699E-10
   0.49950   0.25492088E-10
   0.50050   0.32714345E-10
   0.50150   0.40264677E-10
   0.50250   0.30734203E-10
   0.50350   0.21555792E-10
   0.50450   0.23416257E-10
   0.50550   0.26030504E-10
   0.50650   0.27657257E-10
   0.50750   0.28695348E-10
   0.50850   0.29456146E-10
   0.50950   0.30086961E-10
   0.51050   0.30653598E-10
   0.51150   0.31185846E-10
   0.51250   0.31697551E-10
   0.51350   0.32195330E-10
   0.51450   0.32682520E-10
   0.51550   0.33161057E-10
   0.51650   0.33632510E-10
   0.51750   0.34098821E-10
   0.51850   0.34563245E-10
   0.51950   0.35032664E-10
   0.52050   0.35524184E-10
   0.52150   0.36045989E-10
   0.52250   0.36552393E-10
   0.52350   0.37043264E-10
   0.52450   0.37539572E-10
   0.52550   0.38058452E-10
   0.52650   0.38612277E-10
   0.52750   0.39208813E-10
   0.52850   0.39850928E-10
   0.52950   0.40535957E-10
   0.53050   0.41254503E-10
   0.53150   0.41986924E-10
   0.53250   0.42690435E-10
   0.53350   0.43292321E-10
   0.53450   0.43849976E-10
   0.53550   0.44452560E-10
   0.53650   0.45109239E-10
   0.53750   0.45817513E-10
   0.53850   0.46575212E-10
   0.53950   0.47380967E-10
   0.54050   0.48233986E-10
   0.54150   0.49133909E-10
   0.54250   0.50080742E-10
   0.54350   0.51074853E-10
   0.54450   0.52116967E-10
   0.54550   0.53208177E-10
   0.54650   0.54349938E-10
   0.54750   0.55544073E-10
   0.54850   0.56792758E-10
   0.54950   0.58098519E-10
   0.55050   0.59464191E-10
   0.55150   0.60892916E-10
   0.55250   0.62388081E-10
   0.55350   0.63953322E-10
   0.55450   0.65592476E-10
   0.55550   0.67309547E-10
   0.55650   0.69108698E-10
   0.55750   0.70994224E-10
   0.55850   0.72970525E-10
   0.55950   0.75042118E-10
   0.56050   0.77213617E-10
   0.56150   0.79489741E-10
   0.56250   0.81875333E-10
   0.56350   0.84375340E-10
   0.56450   0.86994890E-10
   0.56550   0.89739251E-10
   0.56650   0.92613889E-10
   0.56750   0.95624474E-10
   0.56850   0.98776917E-10
   0.56950   0.10207740E-09
   0.57050   0.10553236E-09
   0.57150   0.10914854E-09
   0.57250   0.11293298E-09
   0.57350   0.11689302E-09
   0.57450   0.12103635E-09
   0.57550   0.12537092E-09
   0.57650   0.12990502E-09
   0.57750   0.13464717E-09
   0.57850   0.13960620E-09
   0.57950   0.14479117E-09
   0.58050   0.15021129E-09
   0.58150   0.15587598E-09
   0.58250   0.16179480E-09
   0.58350   0.16797733E-09
   0.58450   0.17443325E-09
   0.58550   0.18117216E-09
   0.58650   0.18820363E-09
   0.58750   0.19553707E-09
   0.58850   0.20318168E-09
   0.58950   0.21114641E-09
   0.59050   0.21943986E-09
   0.59150   0.22807022E-09
   0.59250   0.23704513E-09
   0.59350   0.24637170E-09
   0.59450   0.25605632E-09
   0.59550   0.26610453E-09
   0.59650   0.27652100E-09
   0.59750   0.28730937E-09
   0.59850   0.29847208E-09
   0.59950   0.31001018E-09
   0.60050   0.32192335E-09
   0.60150   0.33420947E-09
   0.60250   0.34686456E-09
   0.60350   0.35988251E-09
   0.60450   0.37325484E-09
   0.60550   0.38697026E-09
   0.60650   0.40101447E-09
   0.60750   0.41536954E-09
   0.60850   0.43001347E-09
   0.60950   0.44491946E-09
   0.61050   0.46005508E-09
   0.61150   0.47538101E-09
   0.61250   0.49084958E-09
   0.61350   0.50640270E-09
   0.61450   0.52196802E-09
   0.61550   0.53745403E-09
   0.61650   0.55273847E-09
   0.61750   0.56764277E-09
   0.61850   0.58193772E-09
   0.61950   0.59555155E-09
   0.62050   0.60827321E-09
   0.62150   0.61994998E-09
   0.62250   0.63367728E-09
   0.62350   0.65664213E-09
   0.62450   0.68564698E-09
   0.62550   0.71760264E-09
   0.62650   0.75185053E-09
   0.62750   0.78831464E-09
   0.62850   0.82707041E-09
   0.62950   0.86824531E-09
   0.63050   0.91199232E-09
   0.63150   0.95848252E-09
   0.63250   0.10079050E-08
   0.63350   0.10604694E-08
   0.63450   0.11164102E-08
   0.63550   0.11759913E-08
   0.63650   0.12395107E-08
   0.63750   0.13073053E-08
   0.63850   0.13797554E-08
   0.63950   0.14572883E-08
   0.64050   0.15403812E-08
   0.64150   0.16295632E-08
   0.64250   0.17254169E-08
   0.64350   0.18285800E-08
   0.64450   0.19397446E-08
   0.64550   0.20596593E-08
   0.64650   0.21891311E-08
   0.64750   0.23290276E-08
   0.64850   0.24802833E-08
   0.64950   0.26439073E-08
   0.65050   0.28209952E-08
   0.65150   0.30127458E-08
   0.65250   0.32204801E-08
   0.65350   0.34456689E-08
   0.65450   0.36899621E-08
   0.65550   0.39552268E-08
   0.65650   0.42435850E-08
   0.65750   0.45574633E-08
   0.65850   0.48996371E-08
   0.65950   0.52732880E-08
   0.66050   0.56820557E-08
   0.66150   0.61300978E-08
   0.66250   0.66221526E-08
   0.66350   0.71636039E-08
   0.66450   0.77605549E-08
   0.66550   0.84199110E-08
   0.66650   0.91494785E-08
   0.66750   0.99580841E-08
   0.66850   0.10855718E-07
   0.66950   0.11853725E-07
   0.67050   0.12965027E-07
   0.67150   0.14204418E-07
   0.67250   0.15588917E-07
   0.67350   0.17138198E-07
   0.67450   0.18875125E-07
   0.67550   0.20826349E-07
   0.67650   0.23023032E-07
   0.67750   0.25501665E-07
   0.67850   0.28304978E-07
   0.67950   0.31482955E-07
   0.68050   0.35093930E-07
   0.68150   0.39205766E-07
   0.68250   0.43897035E-07
   0.68350   0.49258116E-07
   0.68450   0.55391748E-07
   0.68550   0.62411466E-07
   0.68650   0.70431902E-07
   0.68750   0.79566931E-07
   0.68850   0.90075645E-07
   0.68950   0.10229429E-06
   0.69050   0.11655377E-06
   0.69150   0.13324492E-06
   0.69250   0.15283980E-06
   0.69350   0.17590706E-06
   0.69450   0.20313060E-06
   0.69550   0.23533244E-06
   0.69650   0.27350131E-06
   0.69750   0.31882863E-06
   0.69850   0.37275399E-06
   0.69950   0.43702354E-06
   0.70050   0.51376492E-06
   0.70150   0.60558460E-06
   0.70250   0.71569485E-06
   0.70350   0.84808158E-06
   0.70450   0.10077266E-05
   0.70550   0.12008217E-05
   0.70650   0.14348408E-05
   0.70750   0.17194878E-05
   0.70850   0.20674461E-05
   0.70950   0.24950450E-05
   0.71050   0.30234332E-05
   0.71150   0.36801862E-05
   0.71250   0.45015086E-05
   0.71350   0.55352930E-05
   0.71450   0.68454365E-05
   0.71550   0.85180045E-05
   0.71650   0.10670186E-04
   0.71750   0.13463503E-04
   0.71850   0.17123650E-04
   0.71950   0.21970891E-04
   0.72050   0.28467637E-04
   0.72150   0.37294805E-04
   0.72250   0.49477872E-04
   0.72350   0.66601890E-04
   0.72450   0.91192669E-04
   0.72550   0.12742436E-03
   0.72650   0.18250883E-03
   0.72750   0.26962141E-03
   0.72850   0.41464248E-03
   0.72950   0.67368126E-03
   0.73050   0.11870966E-02
   0.73150   0.23960168E-02
   0.73250   0.64226696E-02
   0.73350   0.47570456E-01
   0.73450   0.21006459E-01
   0.73550   0.46913181E-01
   0.73650   0.12280600E+00
   0.73750   0.67320742E-01
   0.73850   0.12092265E+00
   0.73950   0.91257468E-02
   0.74050   0.31003350E+00
   0.74150   0.10017260E+00
   0.74250   0.57386573E-01
   0.74350   0.45923032E-01
   0.74450   0.43685675E-01
   0.74550   0.47017176E-01
   0.74650   0.56270018E-01
   0.74750   0.74978761E-01
   0.74850   0.11323904E+00
   0.74950   0.19236094E+00
   0.75050   0.20548682E+00
   0.75150   0.94232254E-01
   0.75250   0.29349753E+00
   0.75350   0.37269589E+00
   0.75450   0.32688102E+00
   0.75550   0.24639751E+00
   0.75650   0.61201829E+00
   0.75750   0.29363406E+00
   0.75850   0.20890599E+00
   0.75950   0.24831463E+00
   0.76050   0.44545543E+00
   0.76150   0.52723747E+00
   0.76250   0.84654701E+00
   0.76350   0.85491920E+00
   0.76450   0.67216992E+00
   0.76550   0.98163736E+00
   0.76650   0.93532771E+00
   0.76750   0.78960955E+00
   0.76850   0.64794624E+00
   0.76950   0.53369170E+00
   0.77050   0.72262287E+00
   0.77150   0.62609518E+00
   0.77250   0.59217179E+00
   0.77350   0.42564023E+00
   0.77450   0.54219663E+00
   0.77550   0.59566593E+00
   0.77650   0.70690048E+00
   0.77750   0.66625339E+00
   0.77850   0.81931287E+00
   0.77950   0.83920860E+00
   0.78050   0.10313538E+01
   0.78150   0.96746516E+00
   0.78250   0.99802423E+00
   0.78350   0.91447622E+00
   0.78450   0.10124822E+01
   0.78550   0.92869163E+00
   0.78650   0.10203927E+01
   0.78750   0.10526049E+01
   0.78850   0.10171170E+01
   0.78950   0.88744313E+00
   0.79050   0.70196122E+00
   0.79150   0.79592866E+00
   0.79250   0.10905210E+01
   0.79350   0.10552125E+01
   0.79450   0.81256151E+00
   0.79550   0.77855140E+00
   0.79650   0.75677150E+00
   0.79750   0.47580269E+00
   0.79850   0.29129252E+00
   0.79950   0.25699380E+00
   0.80050   0.25741306E+00
   0.80150   0.29022235E+00
   0.80250   0.35714266E+00
   0.80350   0.39895409E+00
   0.80450   0.28479013E+00
   0.80550   0.15216830E+00
   0.80650   0.82716383E-01
   0.80750   0.48001334E-01
   0.80850   0.30078668E-01
   0.80950   0.20446531E-01
   0.81050   0.15082165E-01
   0.81150   0.12014770E-01
   0.81250   0.10229898E-01
   0.81350   0.91858013E-02
   0.81450   0.85912179E-02
   0.81550   0.82907705E-02
   0.81650   0.81964508E-02
   0.81750   0.82445508E-02
   0.81850   0.83719827E-02
   0.81950   0.85091358E-02
   0.82050   0.85855648E-02
   0.82150   0.85426532E-02
   0.82250   0.83457464E-02
   0.82350   0.79893265E-02
   0.82450   0.74928692E-02
   0.82550   0.68907626E-02
   0.82650   0.62335385E-02
   0.82750   0.55785733E-02
   0.82850   0.49555409E-02
   0.82950   0.43836292E-02
   0.83050   0.38771972E-02
   0.83150   0.34466623E-02
   0.83250   0.30991270E-02
   0.83350   0.28383560E-02
   0.83450   0.26643900E-02
   0.83550   0.25733674E-02
   0.83650   0.25579089E-02
   0.83750   0.26078417E-02
   0.83850   0.27104961E-02
   0.83950   0.28496839E-02
   0.84050   0.30031253E-02
   0.84150   0.31397997E-02
   0.84250   0.32203221E-02
   0.84350   0.31944385E-02
   0.84450   0.30216917E-02
   0.84550   0.27502440E-02
   0.84650   0.24855940E-02
   0.84750   0.23326299E-02
   0.84850   0.23486651E-02
   0.84950   0.25504939E-02
   0.85050   0.29411458E-02
   0.85150   0.34527325E-02
   0.85250   0.39051387E-02
   0.85350   0.40663350E-02
   0.85450   0.38406814E-02
   0.85550   0.33492018E-02
   0.85650   0.27825111E-02
   0.85750   0.22627672E-02
   0.85850   0.18321484E-02
   0.85950   0.14902559E-02
   0.86050   0.12224165E-02
   0.86150   0.10123672E-02
   0.86250   0.84632798E-03
   0.86350   0.71365351E-03
   0.86450   0.60641707E-03
   0.86550   0.51879475E-03
   0.86650   0.44651551E-03
   0.86750   0.38643117E-03
   0.86850   0.33619677E-03
   0.86950   0.29403807E-03
   0.87050   0.25858422E-03
   0.87150   0.22874898E-03
   0.87250   0.20364769E-03
   0.87350   0.18254072E-03
   0.87450   0.16479590E-03
   0.87550   0.14986485E-03
   0.87650   0.13726873E-03
   0.87750   0.12659008E-03
   0.87850   0.11746845E-03
   0.87950   0.10959749E-03
   0.88050   0.10272247E-03
   0.88150   0.96637144E-04
   0.88250   0.91179543E-04
   0.88350   0.86226864E-04
   0.88450   0.81689599E-04
   0.88550   0.77505436E-04
   0.88650   0.73633339E-04
   0.88750   0.70048198E-04
   0.88850   0.66736233E-04
   0.88950   0.63691252E-04
   0.89050   0.60911727E-04
   0.89150   0.58398567E-04
   0.89250   0.56153513E-04
   0.89350   0.54177966E-04
   0.89450   0.52472165E-04
   0.89550   0.51034633E-04
   0.89650   0.49861868E-04
   0.89750   0.48948281E-04
   0.89850   0.48286627E-04
   0.89950   0.47870097E-04
   0.90050   0.47701335E-04
   0.90150   0.47785365E-04
   0.90250   0.48063004E-04
   0.90350   0.48497550E-04
   0.90450   0.49078142E-04
   0.90550   0.49782419E-04
   0.90650   0.50582752E-04
   0.90750   0.51450534E-04
   0.90850   0.52358340E-04
   0.90950   0.53281572E-04
   0.91050   0.54199623E-04
   0.91150   0.55096556E-04
   0.91250   0.55961311E-04
   0.91350   0.56787510E-04
   0.91450   0.57573070E-04
   0.91550   0.58319878E-04
   0.91650   0.59033900E-04
   0.91750   0.59726051E-04
   0.91850   0.60414131E-04
   0.91950   0.61125909E-04
   0.92050   0.61903185E-04
   0.92150   0.62806153E-04
   0.92250   0.63917061E-04
   0.92350   0.65341534E-04
   0.92450   0.67206121E-04
   0.92550   0.69651032E-04
   0.92650   0.72818104E-04
   0.92750   0.76835611E-04
   0.92850   0.81802660E-04
   0.92950   0.87776003E-04
   0.93050   0.94761563E-04
   0.93150   0.10271095E-03
   0.93250   0.11152250E-03
   0.93350   0.12104584E-03
   0.93450   0.13109033E-03
   0.93550   0.14144012E-03
   0.93650   0.15188051E-03
   0.93750   0.16224147E-03
   0.93850   0.17246249E-03
   0.93950   0.18267616E-03
   0.94050   0.19329970E-03
   0.94150   0.20511520E-03
   0.94250   0.21931918E-03
   0.94350   0.23753147E-03
   0.94450   0.26173994E-03
   0.94550   0.29408155E-03
   0.94650   0.33707469E-03
   0.94750   0.39390434E-03
   0.94850   0.46824274E-03
   0.94950   0.56429044E-03
   0.95050   0.68683998E-03
   0.95150   0.84135635E-03
   0.95250   0.10341089E-02
   0.95350   0.12724545E-02
   0.95450   0.15656159E-02
   0.95550   0.19265150E-02
   0.95650   0.23730269E-02
   0.95750   0.29340868E-02
   0.95850   0.36575543E-02
   0.95950   0.46176007E-02
   0.96050   0.59305509E-02
   0.96150   0.77838255E-02
   0.96250   0.10497774E-01
   0.96350   0.14685406E-01
   0.96450   0.21783529E-01
   0.96550   0.36594298E-01
   0.96650   0.87956719E-01
   0.96750   0.45007226E+00
   0.96850   0.36723372E+00
   0.96950   0.44093645E+00
   0.97050   0.62943316E+00
   0.97150   0.10810982E+01
   0.97250   0.12561717E+01
   0.97350   0.10642451E+01
   0.97450   0.93053997E+00
   0.97550   0.89972168E+00
   0.97650   0.96034259E+00
   0.97750   0.99591887E+00
   0.97850   0.11395707E+01
   0.97950   0.12909070E+01
   0.98050   0.13512542E+01
   0.98150   0.13850441E+01
   0.98250   0.13624622E+01
   0.98350   0.13329489E+01
   0.98450   0.13440852E+01
   0.98550   0.13963922E+01
   0.98650   0.14634124E+01
   0.98750   0.15153214E+01
   0.98850   0.15516311E+01
   0.98950   0.15878600E+01
   0.99050   0.16179819E+01
   0.99150   0.16219262E+01
   0.99250   0.15887648E+01
   0.99350   0.15395375E+01
   0.99450   0.15103323E+01
   0.99550   0.15200442E+01
   0.99650   0.15637895E+01
   0.99750   0.16229031E+01
   0.99850   0.16719645E+01
   0.99950   0.16838704E+01
