# Transmission, k-averaged
# Date: 2021-05-13
#   E [eV]           T [G0]
   0.00050   0.30201176E-01
   0.00150   0.58222879E-01
   0.00250   0.42736307E-01
   0.00350   0.37222397E-01
   0.00450   0.88508502E-01
   0.00550   0.22502016E-01
   0.00650   0.19185046E-01
   0.00750   0.11683137E-01
   0.00850   0.25607433E-01
   0.00950   0.52031707E-02
   0.01050   0.26748087E-01
   0.01150   0.12651325E-01
   0.01250   0.50273882E-02
   0.01350   0.13379296E-01
   0.01450   0.54160301E-01
   0.01550   0.70189112E-02
   0.01650   0.55924761E-02
   0.01750   0.15231683E-01
   0.01850   0.77107131E-01
   0.01950   0.94963936E-02
   0.02050   0.52094064E-02
   0.02150   0.68436577E-02
   0.02250   0.25524314E-01
   0.02350   0.51847897E-01
   0.02450   0.88888388E-02
   0.02550   0.49043843E-02
   0.02650   0.53455289E-02
   0.02750   0.11842267E-01
   0.02850   0.80511197E-01
   0.02950   0.19580089E-01
   0.03050   0.61010025E-02
   0.03150   0.41569234E-02
   0.03250   0.48171929E-02
   0.03350   0.10286133E-01
   0.03450   0.66151813E-01
   0.03550   0.23292160E-01
   0.03650   0.60851183E-02
   0.03750   0.35989461E-02
   0.03850   0.35107073E-02
   0.03950   0.56289146E-02
   0.04050   0.19799052E-01
   0.04150   0.56650918E-01
   0.04250   0.93005532E-02
   0.04350   0.42864671E-02
   0.04450   0.36285091E-02
   0.04550   0.47863731E-02
   0.04650   0.84773414E-02
   0.04750   0.14658905E-01
   0.04850   0.13455036E-01
   0.04950   0.87705599E-02
   0.05050   0.64999815E-02
   0.05150   0.58437712E-02
   0.05250   0.61816936E-02
   0.05350   0.73558697E-02
   0.05450   0.92028286E-02
   0.05550   0.10915697E-01
   0.05650   0.11204113E-01
   0.05750   0.10086623E-01
   0.05850   0.87061925E-02
   0.05950   0.77166767E-02
   0.06050   0.72049638E-02
   0.06150   0.70734406E-02
   0.06250   0.71772910E-02
   0.06350   0.73293936E-02
   0.06450   0.73179845E-02
   0.06550   0.70058983E-02
   0.06650   0.64289914E-02
   0.06750   0.57488978E-02
   0.06850   0.51187188E-02
   0.06950   0.46160668E-02
   0.07050   0.42556208E-02
   0.07150   0.40196753E-02
   0.07250   0.38768593E-02
   0.07350   0.37899264E-02
   0.07450   0.37217750E-02
   0.07550   0.36464760E-02
   0.07650   0.35628260E-02
   0.07750   0.34988145E-02
   0.07850   0.35014329E-02
   0.07950   0.36220562E-02
   0.08050   0.39086691E-02
   0.08150   0.44027898E-02
   0.08250   0.51301457E-02
   0.08350   0.60784882E-02
   0.08450   0.71769208E-02
   0.08550   0.83162002E-02
   0.08650   0.94223749E-02
   0.08750   0.10515938E-01
   0.08850   0.11692485E-01
   0.08950   0.13052945E-01
   0.09050   0.14623793E-01
   0.09150   0.16186936E-01
   0.09250   0.16899781E-01
   0.09350   0.16635412E-01
   0.09450   0.16080173E-01
   0.09550   0.15462521E-01
   0.09650   0.14864364E-01
   0.09750   0.14315039E-01
   0.09850   0.13810513E-01
   0.09950   0.13329440E-01
   0.10050   0.12847479E-01
   0.10150   0.12347290E-01
   0.10250   0.11822985E-01
   0.10350   0.11279263E-01
   0.10450   0.10727110E-01
   0.10550   0.10178685E-01
   0.10650   0.96434997E-02
   0.10750   0.91267461E-02
   0.10850   0.86295204E-02
   0.10950   0.81501603E-02
   0.11050   0.76859426E-02
   0.11150   0.72345468E-02
   0.11250   0.67949533E-02
   0.11350   0.63676825E-02
   0.11450   0.59544840E-02
   0.11550   0.55577066E-02
   0.11650   0.51796339E-02
   0.11750   0.48219818E-02
   0.11850   0.44856621E-02
   0.11950   0.41707992E-02
   0.12050   0.38769213E-02
   0.12150   0.36032312E-02
   0.12250   0.33488653E-02
   0.12350   0.31130828E-02
   0.12450   0.28953564E-02
   0.12550   0.26953693E-02
   0.12650   0.25129432E-02
   0.12750   0.23479334E-02
   0.12850   0.22001248E-02
   0.12950   0.20691596E-02
   0.13050   0.19544996E-02
   0.13150   0.18554272E-02
   0.13250   0.17710737E-02
   0.13350   0.17004646E-02
   0.13450   0.16425680E-02
   0.13550   0.15963418E-02
   0.13650   0.15607725E-02
   0.13750   0.15349046E-02
   0.13850   0.15178581E-02
   0.13950   0.15088363E-02
   0.14050   0.15071223E-02
   0.14150   0.15120690E-02
   0.14250   0.15230824E-02
   0.14350   0.15396019E-02
   0.14450   0.15610823E-02
   0.14550   0.15869780E-02
   0.14650   0.16167328E-02
   0.14750   0.16497792E-02
   0.14850   0.16855436E-02
   0.14950   0.17234609E-02
   0.15050   0.17629932E-02
   0.15150   0.18036520E-02
   0.15250   0.18450177E-02
   0.15350   0.18867532E-02
   0.15450   0.19286112E-02
   0.15550   0.19704290E-02
   0.15650   0.20121152E-02
   0.15750   0.20536301E-02
   0.15850   0.20949594E-02
   0.15950   0.21360901E-02
   0.16050   0.21769886E-02
   0.16150   0.22175855E-02
   0.16250   0.22577664E-02
   0.16350   0.22973742E-02
   0.16450   0.23362127E-02
   0.16550   0.23740581E-02
   0.16650   0.24106654E-02
   0.16750   0.24457630E-02
   0.16850   0.24790268E-02
   0.16950   0.25100040E-02
   0.17050   0.25379404E-02
   0.17150   0.25613781E-02
   0.17250   0.25771405E-02
   0.17350   0.25773135E-02
   0.17450   0.25384114E-02
   0.17550   0.23912131E-02
   0.17650   0.21314796E-02
   0.17750   0.19115853E-02
   0.17850   0.17474870E-02
   0.17950   0.16201558E-02
   0.18050   0.15173298E-02
   0.18150   0.14317873E-02
   0.18250   0.13590405E-02
   0.18350   0.12961375E-02
   0.18450   0.12410419E-02
   0.18550   0.11922938E-02
   0.18650   0.11488134E-02
   0.18750   0.11097802E-02
   0.18850   0.10745561E-02
   0.18950   0.10426352E-02
   0.19050   0.10136080E-02
   0.19150   0.98713848E-03
   0.19250   0.96294604E-03
   0.19350   0.94079413E-03
   0.19450   0.92048070E-03
   0.19550   0.90183219E-03
   0.19650   0.88469888E-03
   0.19750   0.86895120E-03
   0.19850   0.85447723E-03
   0.19950   0.84118062E-03
   0.20050   0.82897901E-03
   0.20150   0.81780233E-03
   0.20250   0.80759166E-03
   0.20350   0.79829764E-03
   0.20450   0.78987912E-03
   0.20550   0.78230182E-03
   0.20650   0.77553658E-03
   0.20750   0.76955807E-03
   0.20850   0.76434313E-03
   0.20950   0.75986917E-03
   0.21050   0.75611332E-03
   0.21150   0.75305195E-03
   0.21250   0.75066305E-03
   0.21350   0.74893684E-03
   0.21450   0.74791512E-03
   0.21550   0.74785028E-03
   0.21650   0.74996188E-03
   0.21750   0.75956277E-03
   0.21850   0.78006880E-03
   0.21950   0.79984393E-03
   0.22050   0.81569410E-03
   0.22150   0.82856271E-03
   0.22250   0.83949603E-03
   0.22350   0.84936182E-03
   0.22450   0.85890346E-03
   0.22550   0.86879614E-03
   0.22650   0.87969139E-03
   0.22750   0.89226075E-03
   0.22850   0.90724562E-03
   0.22950   0.92552451E-03
   0.23050   0.94820594E-03
   0.23150   0.97674190E-03
   0.23250   0.10129020E-02
   0.23350   0.10570954E-02
   0.23450   0.10927949E-02
   0.23550   0.10689388E-02
   0.23650   0.10109200E-02
   0.23750   0.95234771E-03
   0.23850   0.89902035E-03
   0.23950   0.85113145E-03
   0.24050   0.80805516E-03
   0.24150   0.76912896E-03
   0.24250   0.73378341E-03
   0.24350   0.70154830E-03
   0.24450   0.67203690E-03
   0.24550   0.64492883E-03
   0.24650   0.61995635E-03
   0.24750   0.59689343E-03
   0.24850   0.57554746E-03
   0.24950   0.55575330E-03
   0.25050   0.53736783E-03
   0.25150   0.52026683E-03
   0.25250   0.50434127E-03
   0.25350   0.48949558E-03
   0.25450   0.47564509E-03
   0.25550   0.46271487E-03
   0.25650   0.45063812E-03
   0.25750   0.43935532E-03
   0.25850   0.42881307E-03
   0.25950   0.41896358E-03
   0.26050   0.40976377E-03
   0.26150   0.40117497E-03
   0.26250   0.39316228E-03
   0.26350   0.38569426E-03
   0.26450   0.37874267E-03
   0.26550   0.37228203E-03
   0.26650   0.36628949E-03
   0.26750   0.36074460E-03
   0.26850   0.35562913E-03
   0.26950   0.35092697E-03
   0.27050   0.34662388E-03
   0.27150   0.34270744E-03
   0.27250   0.33916705E-03
   0.27350   0.33599362E-03
   0.27450   0.33317975E-03
   0.27550   0.33071946E-03
   0.27650   0.32860826E-03
   0.27750   0.32684312E-03
   0.27850   0.32542227E-03
   0.27950   0.32434546E-03
   0.28050   0.32361367E-03
   0.28150   0.32322935E-03
   0.28250   0.32319617E-03
   0.28350   0.32351931E-03
   0.28450   0.32420518E-03
   0.28550   0.32526153E-03
   0.28650   0.32669734E-03
   0.28750   0.32852252E-03
   0.28850   0.33074754E-03
   0.28950   0.33338254E-03
   0.29050   0.33643554E-03
   0.29150   0.33990911E-03
   0.29250   0.34379316E-03
   0.29350   0.34804962E-03
   0.29450   0.35257640E-03
   0.29550   0.35711325E-03
   0.29650   0.36095741E-03
   0.29750   0.36192095E-03
   0.29850   0.35219794E-03
   0.29950   0.32011524E-03
   0.30050   0.28512953E-03
   0.30150   0.25844848E-03
   0.30250   0.23807498E-03
   0.30350   0.22196738E-03
   0.30450   0.20886143E-03
   0.30550   0.19796209E-03
   0.30650   0.18874196E-03
   0.30750   0.18083290E-03
   0.30850   0.17396620E-03
   0.30950   0.16793789E-03
   0.31050   0.16258750E-03
   0.31150   0.15778441E-03
   0.31250   0.15341894E-03
   0.31350   0.14939613E-03
   0.31450   0.14563151E-03
   0.31550   0.14204821E-03
   0.31650   0.13857520E-03
   0.31750   0.13514623E-03
   0.31850   0.13170007E-03
   0.31950   0.12818136E-03
   0.32050   0.12454277E-03
   0.32150   0.12074826E-03
   0.32250   0.11677759E-03
   0.32350   0.11263212E-03
   0.32450   0.10834126E-03
   0.32550   0.10396917E-03
   0.32650   0.99620054E-04
   0.32750   0.95440504E-04
   0.32850   0.91616079E-04
   0.32950   0.88360051E-04
   0.33050   0.85892330E-04
   0.33150   0.84408945E-04
   0.33250   0.84045329E-04
   0.33350   0.84840038E-04
   0.33450   0.86708118E-04
   0.33550   0.89433190E-04
   0.33650   0.92683818E-04
   0.33750   0.96053140E-04
   0.33850   0.99113713E-04
   0.33950   0.10147497E-03
   0.34050   0.10283031E-03
   0.34150   0.10298507E-03
   0.34250   0.10186284E-03
   0.34350   0.99493351E-04
   0.34450   0.95988544E-04
   0.34550   0.91514092E-04
   0.34650   0.86262284E-04
   0.34750   0.80429832E-04
   0.34850   0.74202078E-04
   0.34950   0.67743393E-04
   0.35050   0.61192688E-04
   0.35150   0.54662803E-04
   0.35250   0.48242313E-04
   0.35350   0.41998817E-04
   0.35450   0.35982961E-04
   0.35550   0.30232723E-04
   0.35650   0.24777813E-04
   0.35750   0.19644371E-04
   0.35850   0.14860496E-04
   0.35950   0.10464540E-04
   0.36050   0.65226013E-05
   0.36150   0.31862569E-05
   0.36250   0.94842250E-06
   0.36350   0.60691167E-06
   0.36450   0.14554645E-05
   0.36550   0.27809588E-05
   0.36650   0.44066674E-05
   0.36750   0.63001180E-05
   0.36850   0.84731764E-05
   0.36950   0.10959094E-04
   0.37050   0.13806764E-04
   0.37150   0.17080429E-04
   0.37250   0.20862068E-04
   0.37350   0.25255988E-04
   0.37450   0.30396088E-04
   0.37550   0.36457062E-04
   0.37650   0.43672029E-04
   0.37750   0.52361229E-04
   0.37850   0.62979969E-04
   0.37950   0.76195429E-04
   0.38050   0.92941264E-04
   0.38150   0.11353344E-03
   0.38250   0.13155563E-03
   0.38350   0.14191847E-03
   0.38450   0.14983288E-03
   0.38550   0.15737346E-03
   0.38650   0.16498529E-03
   0.38750   0.17274446E-03
   0.38850   0.18061894E-03
   0.38950   0.18853064E-03
   0.39050   0.19637284E-03
   0.39150   0.20401638E-03
   0.39250   0.21131386E-03
   0.39350   0.21810501E-03
   0.39450   0.22422508E-03
   0.39550   0.22951679E-03
   0.39650   0.23384615E-03
   0.39750   0.23712064E-03
   0.39850   0.23930790E-03
   0.39950   0.24045078E-03
   0.40050   0.24067407E-03
   0.40150   0.24017875E-03
   0.40250   0.23922112E-03
   0.40350   0.23807827E-03
   0.40450   0.23700588E-03
   0.40550   0.23619791E-03
   0.40650   0.23575837E-03
   0.40750   0.23569250E-03
   0.40850   0.23591821E-03
   0.40950   0.23629233E-03
   0.41050   0.23663709E-03
   0.41150   0.23673623E-03
   0.41250   0.23618537E-03
   0.41350   0.23347281E-03
   0.41450   0.22325059E-03
   0.41550   0.20644354E-03
   0.41650   0.19088166E-03
   0.41750   0.17748665E-03
   0.41850   0.16570369E-03
   0.41950   0.15505435E-03
   0.42050   0.14518668E-03
   0.42150   0.13581567E-03
   0.42250   0.12667004E-03
   0.42350   0.11744181E-03
   0.42450   0.10772278E-03
   0.42550   0.96904369E-04
   0.42650   0.84008541E-04
   0.42750   0.67457840E-04
   0.42850   0.45332359E-04
   0.42950   0.20443729E-04
   0.43050   0.20159805E-04
   0.43150   0.65055094E-04
   0.43250   0.10008868E-03
   0.43350   0.11208931E-03
   0.43450   0.11405067E-03
   0.43550   0.11264232E-03
   0.43650   0.11029302E-03
   0.43750   0.10797408E-03
   0.43850   0.10625036E-03
   0.43950   0.10571689E-03
   0.44050   0.10734938E-03
   0.44150   0.11321195E-03
   0.44250   0.12894766E-03
   0.44350   0.17484132E-03
   0.44450   0.28431878E-03
   0.44550   0.31534233E-03
   0.44650   0.32006105E-03
   0.44750   0.36501599E-03
   0.44850   0.43010089E-03
   0.44950   0.48913847E-03
   0.45050   0.51427621E-03
   0.45150   0.48767080E-03
   0.45250   0.42143228E-03
   0.45350   0.38217744E-03
   0.45450   0.52311434E-03
   0.45550   0.79563968E-02
   0.45650   0.33715016E-02
   0.45750   0.22695968E-02
   0.45850   0.74046548E-03
   0.45950   0.44467731E-03
   0.46050   0.58829517E-03
   0.46150   0.52129664E-03
   0.46250   0.41078619E-03
   0.46350   0.33739922E-03
   0.46450   0.30088489E-03
   0.46550   0.29148487E-03
   0.46650   0.29680817E-03
   0.46750   0.30578452E-03
   0.46850   0.31190694E-03
   0.46950   0.31321865E-03
   0.47050   0.31033490E-03
   0.47150   0.30474749E-03
   0.47250   0.29814884E-03
   0.47350   0.29215150E-03
   0.47450   0.28800746E-03
   0.47550   0.28647075E-03
   0.47650   0.28789634E-03
   0.47750   0.29241020E-03
   0.47850   0.29996925E-03
   0.47950   0.31030958E-03
   0.48050   0.32290482E-03
   0.48150   0.33702786E-03
   0.48250   0.35189881E-03
   0.48350   0.36681129E-03
   0.48450   0.38111836E-03
   0.48550   0.39400771E-03
   0.48650   0.40404795E-03
   0.48750   0.40855809E-03
   0.48850   0.40328986E-03
   0.48950   0.38468733E-03
   0.49050   0.35871795E-03
   0.49150   0.34384136E-03
   0.49250   0.33520025E-03
   0.49350   0.30717463E-03
   0.49450   0.26962912E-03
   0.49550   0.24117979E-03
   0.49650   0.22497241E-03
   0.49750   0.21746651E-03
   0.49850   0.21632493E-03
   0.49950   0.22002059E-03
   0.50050   0.22475701E-03
   0.50150   0.22910400E-03
   0.50250   0.23283821E-03
   0.50350   0.23599312E-03
   0.50450   0.23866515E-03
   0.50550   0.24096608E-03
   0.50650   0.24300901E-03
   0.50750   0.24490448E-03
   0.50850   0.24676122E-03
   0.50950   0.24868909E-03
   0.51050   0.25080354E-03
   0.51150   0.25323193E-03
   0.51250   0.25612130E-03
   0.51350   0.25964977E-03
   0.51450   0.26404401E-03
   0.51550   0.26960770E-03
   0.51650   0.27677070E-03
   0.51750   0.28617695E-03
   0.51850   0.29883484E-03
   0.51950   0.31621713E-03
   0.52050   0.33802303E-03
   0.52150   0.35041216E-03
   0.52250   0.34887780E-03
   0.52350   0.34410137E-03
   0.52450   0.33957948E-03
   0.52550   0.33610981E-03
   0.52650   0.33390019E-03
   0.52750   0.33302064E-03
   0.52850   0.33350839E-03
   0.52950   0.33536283E-03
   0.53050   0.33840886E-03
   0.53150   0.34167248E-03
   0.53250   0.34031778E-03
   0.53350   0.31994053E-03
   0.53450   0.28879198E-03
   0.53550   0.26502938E-03
   0.53650   0.24976640E-03
   0.53750   0.24209687E-03
   0.53850   0.24180382E-03
   0.53950   0.24922116E-03
   0.54050   0.26477227E-03
   0.54150   0.28816040E-03
   0.54250   0.31714837E-03
   0.54350   0.34659760E-03
   0.54450   0.36948352E-03
   0.54550   0.38045825E-03
   0.54650   0.37850987E-03
   0.54750   0.36591056E-03
   0.54850   0.34607766E-03
   0.54950   0.32244527E-03
   0.55050   0.29781813E-03
   0.55150   0.27404501E-03
   0.55250   0.25209086E-03
   0.55350   0.23230779E-03
   0.55450   0.21469926E-03
   0.55550   0.19910235E-03
   0.55650   0.18529331E-03
   0.55750   0.17304166E-03
   0.55850   0.16213430E-03
   0.55950   0.15238428E-03
   0.56050   0.14363187E-03
   0.56150   0.13574233E-03
   0.56250   0.12860268E-03
   0.56350   0.12211819E-03
   0.56450   0.11620929E-03
   0.56550   0.11080893E-03
   0.56650   0.10586034E-03
   0.56750   0.10131532E-03
   0.56850   0.97132848E-04
   0.56950   0.93278046E-04
   0.57050   0.89721412E-04
   0.57150   0.86438296E-04
   0.57250   0.83408675E-04
   0.57350   0.80617188E-04
   0.57450   0.78053607E-04
   0.57550   0.75713797E-04
   0.57650   0.73601572E-04
   0.57750   0.71731862E-04
   0.57850   0.70136113E-04
   0.57950   0.68871479E-04
   0.58050   0.68036672E-04
   0.58150   0.67799549E-04
   0.58250   0.68445435E-04
   0.58350   0.70460868E-04
   0.58450   0.74669748E-04
   0.58550   0.82409795E-04
   0.58650   0.95560528E-04
   0.58750   0.11563744E-03
   0.58850   0.14049880E-03
   0.58950   0.16083196E-03
   0.59050   0.16682969E-03
   0.59150   0.15976753E-03
   0.59250   0.14751243E-03
   0.59350   0.13545711E-03
   0.59450   0.12545638E-03
   0.59550   0.11768263E-03
   0.59650   0.11181207E-03
   0.59750   0.10746749E-03
   0.59850   0.10433849E-03
   0.59950   0.10219647E-03
   0.60050   0.10088256E-03
   0.60150   0.10029267E-03
   0.60250   0.10036562E-03
   0.60350   0.10107547E-03
   0.60450   0.10242736E-03
   0.60550   0.10445683E-03
   0.60650   0.10723265E-03
   0.60750   0.11086393E-03
   0.60850   0.11551404E-03
   0.60950   0.12142698E-03
   0.61050   0.12898077E-03
   0.61150   0.13881308E-03
   0.61250   0.15219515E-03
   0.61350   0.17264753E-03
   0.61450   0.21861900E-03
   0.61550   0.41879585E-03
   0.61650   0.22905269E-03
   0.61750   0.25803983E-03
   0.61850   0.27925562E-03
   0.61950   0.25789122E-03
   0.62050   0.22389773E-03
   0.62150   0.19883529E-03
   0.62250   0.18096471E-03
   0.62350   0.16889002E-03
   0.62450   0.15859085E-03
   0.62550   0.14636498E-03
   0.62650   0.14984225E-03
   0.62750   0.15684722E-03
   0.62850   0.17770457E-03
   0.62950   0.27771739E-03
   0.63050   0.34424767E-03
   0.63150   0.34480102E-02
   0.63250   0.16038913E-01
   0.63350   0.19780803E-01
   0.63450   0.12014072E-01
   0.63550   0.11727666E-01
   0.63650   0.10830417E-01
   0.63750   0.81092045E-02
   0.63850   0.63511180E-02
   0.63950   0.49399254E-02
   0.64050   0.37740096E-02
   0.64150   0.29249932E-02
   0.64250   0.24469562E-02
   0.64350   0.20952853E-02
   0.64450   0.18157882E-02
   0.64550   0.16117236E-02
   0.64650   0.14649718E-02
   0.64750   0.13653027E-02
   0.64850   0.13011040E-02
   0.64950   0.12591064E-02
   0.65050   0.12317651E-02
   0.65150   0.12164640E-02
   0.65250   0.12107873E-02
   0.65350   0.12111939E-02
   0.65450   0.12145388E-02
   0.65550   0.12190312E-02
   0.65650   0.12236414E-02
   0.65750   0.12272083E-02
   0.65850   0.12283182E-02
   0.65950   0.12258238E-02
   0.66050   0.12192997E-02
   0.66150   0.12090175E-02
   0.66250   0.11955645E-02
   0.66350   0.11794666E-02
   0.66450   0.11610431E-02
   0.66550   0.11404861E-02
   0.66650   0.11180223E-02
   0.66750   0.10940172E-02
   0.66850   0.10689709E-02
   0.66950   0.10434313E-02
   0.67050   0.10178912E-02
   0.67150   0.99272258E-03
   0.67250   0.96816820E-03
   0.67350   0.94438024E-03
   0.67450   0.92147890E-03
   0.67550   0.89960609E-03
   0.67650   0.87895780E-03
   0.67750   0.85979071E-03
   0.67850   0.84240979E-03
   0.67950   0.82714733E-03
   0.68050   0.81434374E-03
   0.68150   0.80433453E-03
   0.68250   0.79743442E-03
   0.68350   0.79387520E-03
   0.68450   0.79351390E-03
   0.68550   0.79440593E-03
   0.68650   0.78504451E-03
   0.68750   0.72566821E-03
   0.68850   0.63096639E-03
   0.68950   0.55116229E-03
   0.69050   0.48898661E-03
   0.69150   0.43970227E-03
   0.69250   0.39972903E-03
   0.69350   0.36669394E-03
   0.69450   0.33901513E-03
   0.69550   0.31561591E-03
   0.69650   0.29574896E-03
   0.69750   0.27888853E-03
   0.69850   0.26466569E-03
   0.69950   0.25283292E-03
   0.70050   0.24325134E-03
   0.70150   0.23589733E-03
   0.70250   0.23088857E-03
   0.70350   0.22849906E-03
   0.70450   0.22877395E-03
   0.70550   0.22811070E-03
   0.70650   0.22121293E-03
   0.70750   0.21269705E-03
   0.70850   0.20478824E-03
   0.70950   0.19769454E-03
   0.71050   0.19131793E-03
   0.71150   0.18553318E-03
   0.71250   0.18022930E-03
   0.71350   0.17531426E-03
   0.71450   0.17071368E-03
   0.71550   0.16636914E-03
   0.71650   0.16223625E-03
   0.71750   0.15828294E-03
   0.71850   0.15448760E-03
   0.71950   0.15083721E-03
   0.72050   0.14732583E-03
   0.72150   0.14395335E-03
   0.72250   0.14072494E-03
   0.72350   0.13765103E-03
   0.72450   0.13474800E-03
   0.72550   0.13203955E-03
   0.72650   0.12955938E-03
   0.72750   0.12735595E-03
   0.72850   0.12550286E-03
   0.72950   0.12412461E-03
   0.73050   0.12347306E-03
   0.73150   0.12419188E-03
   0.73250   0.12762427E-03
   0.73350   0.13235738E-03
   0.73450   0.13604663E-03
   0.73550   0.13906266E-03
   0.73650   0.14198018E-03
   0.73750   0.14525838E-03
   0.73850   0.14933682E-03
   0.73950   0.15472253E-03
   0.74050   0.16208904E-03
   0.74150   0.17244727E-03
   0.74250   0.18761502E-03
   0.74350   0.21287527E-03
   0.74450   0.28754942E-03
   0.74550   0.83337724E-03
   0.74650   0.25244686E-03
   0.74750   0.36636688E-03
   0.74850   0.79169357E-03
   0.74950   0.21584260E-02
   0.75050   0.44156103E-02
   0.75150   0.44744881E-02
   0.75250   0.43678903E-02
   0.75350   0.82492537E-03
   0.75450   0.18459025E-02
   0.75550   0.25048148E-01
   0.75650   0.58591604E-01
   0.75750   0.37892394E-01
   0.75850   0.17615728E-01
   0.75950   0.15001508E-01
   0.76050   0.10405407E-01
   0.76150   0.12828048E-01
   0.76250   0.14757864E-01
   0.76350   0.13747677E-01
   0.76450   0.13031226E-01
   0.76550   0.12460154E-01
   0.76650   0.11778954E-01
   0.76750   0.10669807E-01
   0.76850   0.95996642E-02
   0.76950   0.86623933E-02
   0.77050   0.78533730E-02
   0.77150   0.71882433E-02
   0.77250   0.66574924E-02
   0.77350   0.62628789E-02
   0.77450   0.59931031E-02
   0.77550   0.58166524E-02
   0.77650   0.57151210E-02
   0.77750   0.56889863E-02
   0.77850   0.57278639E-02
   0.77950   0.57942476E-02
   0.78050   0.58339303E-02
   0.78150   0.57742791E-02
   0.78250   0.55059665E-02
   0.78350   0.51449900E-02
   0.78450   0.48268097E-02
   0.78550   0.45539374E-02
   0.78650   0.43153386E-02
   0.78750   0.41039428E-02
   0.78850   0.39154356E-02
   0.78950   0.37464716E-02
   0.79050   0.35940814E-02
   0.79150   0.34559965E-02
   0.79250   0.33310624E-02
   0.79350   0.32190871E-02
   0.79450   0.31201071E-02
   0.79550   0.30335744E-02
   0.79650   0.29579813E-02
   0.79750   0.28910944E-02
   0.79850   0.28306157E-02
   0.79950   0.27748768E-02
   0.80050   0.27231863E-02
   0.80150   0.26756842E-02
   0.80250   0.26328589E-02
   0.80350   0.25950512E-02
   0.80450   0.25621897E-02
   0.80550   0.25338305E-02
   0.80650   0.25094112E-02
   0.80750   0.24885517E-02
   0.80850   0.24712360E-02
   0.80950   0.24577894E-02
   0.81050   0.24486808E-02
   0.81150   0.24442652E-02
   0.81250   0.24445960E-02
   0.81350   0.24493767E-02
   0.81450   0.24580592E-02
   0.81550   0.24700237E-02
   0.81650   0.24847640E-02
   0.81750   0.25019997E-02
   0.81850   0.25216897E-02
   0.81950   0.25439726E-02
   0.82050   0.25690957E-02
   0.82150   0.25974126E-02
   0.82250   0.26295299E-02
   0.82350   0.26667665E-02
   0.82450   0.27125389E-02
   0.82550   0.27764631E-02
   0.82650   0.28655799E-02
   0.82750   0.29573878E-02
   0.82850   0.30465324E-02
   0.82950   0.31371652E-02
   0.83050   0.32326994E-02
   0.83150   0.33359462E-02
   0.83250   0.34496994E-02
   0.83350   0.35771860E-02
   0.83450   0.37224533E-02
   0.83550   0.38907304E-02
   0.83650   0.40888083E-02
   0.83750   0.43254816E-02
   0.83850   0.46121040E-02
   0.83950   0.49631651E-02
   0.84050   0.53960858E-02
   0.84150   0.59254160E-02
   0.84250   0.65214448E-02
   0.84350   0.70367642E-02
   0.84450   0.21566700E-01
   0.84550   0.13857798E-01
   0.84650   0.15209875E-01
   0.84750   0.18551646E-01
   0.84850   0.23055725E-01
   0.84950   0.30069711E-01
   0.85050   0.45708444E-01
   0.85150   0.84801063E-01
   0.85250   0.10343306E+00
   0.85350   0.90363234E-01
   0.85450   0.80840699E-01
   0.85550   0.64346708E-01
   0.85650   0.71078129E-01
   0.85750   0.91459498E-01
   0.85850   0.10559358E+00
   0.85950   0.11670103E+00
   0.86050   0.11834249E+00
   0.86150   0.11083341E+00
   0.86250   0.10585850E+00
   0.86350   0.10528974E+00
   0.86450   0.10898025E+00
   0.86550   0.12622656E+00
   0.86650   0.14206482E+00
   0.86750   0.12815197E+00
   0.86850   0.11264781E+00
   0.86950   0.10245851E+00
   0.87050   0.95598958E-01
   0.87150   0.90478666E-01
   0.87250   0.86161315E-01
   0.87350   0.82044668E-01
   0.87450   0.77848412E-01
   0.87550   0.73590815E-01
   0.87650   0.69460057E-01
   0.87750   0.65691650E-01
   0.87850   0.62477637E-01
   0.87950   0.59902851E-01
   0.88050   0.57940926E-01
   0.88150   0.56508280E-01
   0.88250   0.55523656E-01
   0.88350   0.54926798E-01
   0.88450   0.54653015E-01
   0.88550   0.54602735E-01
   0.88650   0.54653049E-01
   0.88750   0.54713190E-01
   0.88850   0.54764722E-01
   0.88950   0.54836277E-01
   0.89050   0.54941386E-01
   0.89150   0.55047024E-01
   0.89250   0.55098858E-01
   0.89350   0.55069923E-01
   0.89450   0.54983351E-01
   0.89550   0.54894380E-01
   0.89650   0.54857314E-01
   0.89750   0.54906264E-01
   0.89850   0.55057518E-01
   0.89950   0.55329353E-01
   0.90050   0.55786356E-01
   0.90150   0.56509703E-01
   0.90250   0.57389621E-01
   0.90350   0.58384124E-01
   0.90450   0.59466366E-01
   0.90550   0.60601268E-01
   0.90650   0.61763607E-01
   0.90750   0.62936194E-01
   0.90850   0.64110324E-01
   0.90950   0.65286987E-01
   0.91050   0.66477783E-01
   0.91150   0.67705303E-01
   0.91250   0.69003828E-01
   0.91350   0.70422731E-01
   0.91450   0.72040260E-01
   0.91550   0.74021779E-01
   0.91650   0.76970629E-01
   0.91750   0.86736284E-01
   0.91850   0.79744786E-01
   0.91950   0.81160158E-01
   0.92050   0.84856249E-01
   0.92150   0.90073824E-01
   0.92250   0.99094838E-01
   0.92350   0.11016555E+00
   0.92450   0.10958088E+00
   0.92550   0.11182623E+00
   0.92650   0.11717908E+00
   0.92750   0.12450130E+00
   0.92850   0.13316239E+00
   0.92950   0.14116219E+00
   0.93050   0.14486654E+00
   0.93150   0.14477274E+00
   0.93250   0.14698640E+00
   0.93350   0.15550286E+00
   0.93450   0.17246661E+00
   0.93550   0.20089231E+00
   0.93650   0.23799877E+00
   0.93750   0.26054522E+00
   0.93850   0.25952378E+00
   0.93950   0.25615728E+00
   0.94050   0.25847760E+00
   0.94150   0.26567197E+00
   0.94250   0.28203589E+00
   0.94350   0.30488002E+00
   0.94450   0.32821110E+00
   0.94550   0.35452887E+00
   0.94650   0.38794672E+00
   0.94750   0.41042417E+00
   0.94850   0.41403773E+00
   0.94950   0.41526443E+00
   0.95050   0.41652185E+00
   0.95150   0.42115638E+00
   0.95250   0.43202740E+00
   0.95350   0.44929737E+00
   0.95450   0.46886292E+00
   0.95550   0.48486534E+00
   0.95650   0.49553090E+00
   0.95750   0.50198275E+00
   0.95850   0.50656849E+00
   0.95950   0.51245320E+00
   0.96050   0.52199370E+00
   0.96150   0.53544801E+00
   0.96250   0.55175328E+00
   0.96350   0.56980443E+00
   0.96450   0.58812034E+00
   0.96550   0.60383892E+00
   0.96650   0.61314511E+00
   0.96750   0.61331350E+00
   0.96850   0.60580337E+00
   0.96950   0.59568572E+00
   0.97050   0.58657271E+00
   0.97150   0.57888913E+00
   0.97250   0.57270110E+00
   0.97350   0.56924063E+00
   0.97450   0.56969923E+00
   0.97550   0.57448053E+00
   0.97650   0.58358783E+00
   0.97750   0.59637815E+00
   0.97850   0.61171901E+00
   0.97950   0.62810469E+00
   0.98050   0.64384627E+00
   0.98150   0.65795243E+00
   0.98250   0.67131943E+00
   0.98350   0.68625838E+00
   0.98450   0.70360100E+00
   0.98550   0.72063416E+00
   0.98650   0.73271745E+00
   0.98750   0.73751223E+00
   0.98850   0.73812479E+00
   0.98950   0.74006796E+00
   0.99050   0.74558389E+00
   0.99150   0.75435555E+00
   0.99250   0.76510710E+00
   0.99350   0.77592087E+00
   0.99450   0.78521866E+00
   0.99550   0.79246610E+00
   0.99650   0.79650056E+00
   0.99750   0.79749197E+00
   0.99850   0.79429489E+00
   0.99950   0.78275782E+00
