# Transmission, k-averaged
# Date: 2021-05-13
#   E [eV]           T [G0]
   0.00050   0.37395549E+00
   0.00150   0.26521188E+00
   0.00250   0.77151030E-01
   0.00350   0.14044026E+00
   0.00450   0.89225825E-02
   0.00550   0.18061114E-01
   0.00650   0.52931765E-02
   0.00750   0.62848307E-01
   0.00850   0.37805610E-02
   0.00950   0.59663607E-02
   0.01050   0.46764515E-01
   0.01150   0.39486014E-02
   0.01250   0.33502018E-02
   0.01350   0.14047866E-01
   0.01450   0.21283407E-01
   0.01550   0.38801031E-02
   0.01650   0.30268666E-02
   0.01750   0.62050438E-02
   0.01850   0.61035793E-01
   0.01950   0.10317151E-01
   0.02050   0.34750581E-02
   0.02150   0.28665066E-02
   0.02250   0.46607419E-02
   0.02350   0.21882141E-01
   0.02450   0.30998213E-01
   0.02550   0.51467814E-02
   0.02650   0.26687430E-02
   0.02750   0.24897333E-02
   0.02850   0.39826166E-02
   0.02950   0.15364608E-01
   0.03050   0.47200125E-01
   0.03150   0.57556983E-02
   0.03250   0.24755637E-02
   0.03350   0.19210802E-02
   0.03450   0.23516354E-02
   0.03550   0.50230753E-02
   0.03650   0.32602277E-01
   0.03750   0.20322384E-01
   0.03850   0.46193413E-02
   0.03950   0.26700061E-02
   0.04050   0.25502287E-02
   0.04150   0.37421356E-02
   0.04250   0.94374213E-02
   0.04350   0.45766514E-01
   0.04450   0.19183727E-01
   0.04550   0.71146600E-02
   0.04650   0.49942415E-02
   0.04750   0.48396052E-02
   0.04850   0.57099066E-02
   0.04950   0.75196521E-02
   0.05050   0.96954079E-02
   0.05150   0.10441321E-01
   0.05250   0.92498651E-02
   0.05350   0.77044796E-02
   0.05450   0.66850991E-02
   0.05550   0.62415833E-02
   0.05650   0.62458948E-02
   0.05750   0.65642744E-02
   0.05850   0.70330608E-02
   0.05950   0.74326675E-02
   0.06050   0.75607346E-02
   0.06150   0.73702433E-02
   0.06250   0.69869314E-02
   0.06350   0.65802378E-02
   0.06450   0.62604025E-02
   0.06550   0.60665933E-02
   0.06650   0.59917755E-02
   0.06750   0.60034674E-02
   0.06850   0.60556009E-02
   0.06950   0.60989009E-02
   0.07050   0.60942350E-02
   0.07150   0.60250708E-02
   0.07250   0.59007234E-02
   0.07350   0.57477914E-02
   0.07450   0.55964920E-02
   0.07550   0.54703085E-02
   0.07650   0.53819115E-02
   0.07750   0.53335461E-02
   0.07850   0.53192950E-02
   0.07950   0.53278594E-02
   0.08050   0.53456239E-02
   0.08150   0.53599854E-02
   0.08250   0.53625056E-02
   0.08350   0.53509502E-02
   0.08450   0.53294580E-02
   0.08550   0.53068874E-02
   0.08650   0.52942066E-02
   0.08750   0.53019626E-02
   0.08850   0.53382958E-02
   0.08950   0.54066922E-02
   0.09050   0.54985033E-02
   0.09150   0.55506825E-02
   0.09250   0.53503173E-02
   0.09350   0.49531083E-02
   0.09450   0.45748441E-02
   0.09550   0.42450735E-02
   0.09650   0.39579840E-02
   0.09750   0.37070399E-02
   0.09850   0.34871486E-02
   0.09950   0.32940384E-02
   0.10050   0.31238056E-02
   0.10150   0.29727665E-02
   0.10250   0.28374859E-02
   0.10350   0.27148789E-02
   0.10450   0.26023216E-02
   0.10550   0.24977291E-02
   0.10650   0.23995824E-02
   0.10750   0.23068953E-02
   0.10850   0.22191268E-02
   0.10950   0.21360591E-02
   0.11050   0.20576636E-02
   0.11150   0.19839762E-02
   0.11250   0.19150020E-02
   0.11350   0.18506552E-02
   0.11450   0.17907337E-02
   0.11550   0.17349242E-02
   0.11650   0.16828283E-02
   0.11750   0.16340020E-02
   0.11850   0.15879971E-02
   0.11950   0.15444017E-02
   0.12050   0.15028705E-02
   0.12150   0.14631433E-02
   0.12250   0.14250504E-02
   0.12350   0.13885049E-02
   0.12450   0.13534850E-02
   0.12550   0.13200105E-02
   0.12650   0.12881181E-02
   0.12750   0.12578388E-02
   0.12850   0.12291810E-02
   0.12950   0.12021200E-02
   0.13050   0.11765951E-02
   0.13150   0.11525130E-02
   0.13250   0.11297553E-02
   0.13350   0.11081904E-02
   0.13450   0.10876858E-02
   0.13550   0.10681200E-02
   0.13650   0.10493918E-02
   0.13750   0.10314269E-02
   0.13850   0.10141797E-02
   0.13950   0.99763204E-03
   0.14050   0.98178792E-03
   0.14150   0.96666638E-03
   0.14250   0.95229293E-03
   0.14350   0.93869149E-03
   0.14450   0.92587731E-03
   0.14550   0.91385195E-03
   0.14650   0.90260111E-03
   0.14750   0.89209416E-03
   0.14850   0.88228681E-03
   0.14950   0.87312493E-03
   0.15050   0.86454966E-03
   0.15150   0.85650326E-03
   0.15250   0.84893400E-03
   0.15350   0.84180041E-03
   0.15450   0.83507400E-03
   0.15550   0.82873972E-03
   0.15650   0.82279497E-03
   0.15750   0.81724662E-03
   0.15850   0.81210694E-03
   0.15950   0.80738857E-03
   0.16050   0.80309977E-03
   0.16150   0.79923950E-03
   0.16250   0.79579407E-03
   0.16350   0.79273432E-03
   0.16450   0.79001428E-03
   0.16550   0.78757032E-03
   0.16650   0.78532018E-03
   0.16750   0.78316068E-03
   0.16850   0.78095956E-03
   0.16950   0.77853689E-03
   0.17050   0.77561953E-03
   0.17150   0.77173102E-03
   0.17250   0.76590222E-03
   0.17350   0.75578887E-03
   0.17450   0.73445181E-03
   0.17550   0.68128994E-03
   0.17650   0.59540942E-03
   0.17750   0.52308250E-03
   0.17850   0.46883241E-03
   0.17950   0.42657720E-03
   0.18050   0.39238861E-03
   0.18150   0.36393479E-03
   0.18250   0.33975462E-03
   0.18350   0.31887894E-03
   0.18450   0.30063375E-03
   0.18550   0.28453232E-03
   0.18650   0.27021213E-03
   0.18750   0.25739640E-03
   0.18850   0.24586913E-03
   0.18950   0.23545872E-03
   0.19050   0.22602660E-03
   0.19150   0.21745927E-03
   0.19250   0.20966252E-03
   0.19350   0.20255730E-03
   0.19450   0.19607649E-03
   0.19550   0.19016264E-03
   0.19650   0.18476619E-03
   0.19750   0.17984411E-03
   0.19850   0.17535896E-03
   0.19950   0.17127805E-03
   0.20050   0.16757291E-03
   0.20150   0.16421890E-03
   0.20250   0.16119482E-03
   0.20350   0.15848274E-03
   0.20450   0.15606781E-03
   0.20550   0.15393815E-03
   0.20650   0.15208485E-03
   0.20750   0.15050190E-03
   0.20850   0.14918639E-03
   0.20950   0.14813863E-03
   0.21050   0.14736275E-03
   0.21150   0.14686763E-03
   0.21250   0.14666887E-03
   0.21350   0.14679316E-03
   0.21450   0.14728899E-03
   0.21550   0.14825775E-03
   0.21650   0.14996354E-03
   0.21750   0.15313066E-03
   0.21850   0.15784414E-03
   0.21950   0.16269492E-03
   0.22050   0.16749962E-03
   0.22150   0.17242113E-03
   0.22250   0.17759093E-03
   0.22350   0.18311429E-03
   0.22450   0.18908884E-03
   0.22550   0.19561721E-03
   0.22650   0.20281739E-03
   0.22750   0.21083384E-03
   0.22850   0.21985182E-03
   0.22950   0.23011859E-03
   0.23050   0.24197517E-03
   0.23150   0.25590078E-03
   0.23250   0.27253266E-03
   0.23350   0.29224070E-03
   0.23450   0.31057786E-03
   0.23550   0.31180671E-03
   0.23650   0.30182669E-03
   0.23750   0.29054622E-03
   0.23850   0.27992780E-03
   0.23950   0.27019606E-03
   0.24050   0.26128069E-03
   0.24150   0.25307090E-03
   0.24250   0.24546561E-03
   0.24350   0.23838098E-03
   0.24450   0.23174952E-03
   0.24550   0.22551707E-03
   0.24650   0.21964007E-03
   0.24750   0.21408343E-03
   0.24850   0.20881875E-03
   0.24950   0.20382305E-03
   0.25050   0.19907775E-03
   0.25150   0.19456790E-03
   0.25250   0.19028154E-03
   0.25350   0.18620922E-03
   0.25450   0.18234356E-03
   0.25550   0.17867886E-03
   0.25650   0.17521087E-03
   0.25750   0.17193641E-03
   0.25850   0.16885315E-03
   0.25950   0.16595938E-03
   0.26050   0.16325380E-03
   0.26150   0.16073532E-03
   0.26250   0.15840294E-03
   0.26350   0.15625558E-03
   0.26450   0.15429204E-03
   0.26550   0.15251091E-03
   0.26650   0.15091056E-03
   0.26750   0.14948923E-03
   0.26850   0.14824499E-03
   0.26950   0.14717590E-03
   0.27050   0.14628016E-03
   0.27150   0.14555620E-03
   0.27250   0.14500294E-03
   0.27350   0.14461996E-03
   0.27450   0.14440772E-03
   0.27550   0.14436788E-03
   0.27650   0.14450341E-03
   0.27750   0.14481903E-03
   0.27850   0.14532133E-03
   0.27950   0.14601916E-03
   0.28050   0.14692389E-03
   0.28150   0.14804977E-03
   0.28250   0.14941426E-03
   0.28350   0.15103843E-03
   0.28450   0.15294741E-03
   0.28550   0.15517087E-03
   0.28650   0.15774365E-03
   0.28750   0.16070642E-03
   0.28850   0.16410639E-03
   0.28950   0.16799827E-03
   0.29050   0.17244498E-03
   0.29150   0.17751835E-03
   0.29250   0.18329872E-03
   0.29350   0.18987176E-03
   0.29450   0.19731656E-03
   0.29550   0.20566575E-03
   0.29650   0.21476232E-03
   0.29750   0.22365684E-03
   0.29850   0.22779437E-03
   0.29950   0.21763305E-03
   0.30050   0.20266599E-03
   0.30150   0.19143631E-03
   0.30250   0.18367205E-03
   0.30350   0.17846508E-03
   0.30450   0.17519816E-03
   0.30550   0.17347457E-03
   0.30650   0.17303249E-03
   0.30750   0.17369323E-03
   0.30850   0.17533122E-03
   0.30950   0.17785591E-03
   0.31050   0.18120042E-03
   0.31150   0.18531409E-03
   0.31250   0.19015728E-03
   0.31350   0.19569779E-03
   0.31450   0.20190794E-03
   0.31550   0.20876243E-03
   0.31650   0.21623657E-03
   0.31750   0.22430466E-03
   0.31850   0.23293878E-03
   0.31950   0.24210743E-03
   0.32050   0.25177450E-03
   0.32150   0.26189821E-03
   0.32250   0.27242990E-03
   0.32350   0.28331307E-03
   0.32450   0.29448202E-03
   0.32550   0.30586022E-03
   0.32650   0.31735850E-03
   0.32750   0.32887209E-03
   0.32850   0.34027683E-03
   0.32950   0.35142328E-03
   0.33050   0.36212819E-03
   0.33150   0.37216200E-03
   0.33250   0.38122971E-03
   0.33350   0.38894312E-03
   0.33450   0.39477961E-03
   0.33550   0.39802259E-03
   0.33650   0.39767948E-03
   0.33750   0.39237854E-03
   0.33850   0.38027239E-03
   0.33950   0.35904799E-03
   0.34050   0.32632082E-03
   0.34150   0.28098596E-03
   0.34250   0.22613804E-03
   0.34350   0.17251774E-03
   0.34450   0.13735522E-03
   0.34550   0.13430930E-03
   0.34650   0.16337045E-03
   0.34750   0.21327981E-03
   0.34850   0.27133417E-03
   0.34950   0.32919375E-03
   0.35050   0.38312908E-03
   0.35150   0.43227084E-03
   0.35250   0.47708652E-03
   0.35350   0.51851891E-03
   0.35450   0.55759598E-03
   0.35550   0.59528812E-03
   0.35650   0.63247548E-03
   0.35750   0.66995912E-03
   0.35850   0.70848322E-03
   0.35950   0.74875262E-03
   0.36050   0.79142355E-03
   0.36150   0.83702052E-03
   0.36250   0.88604179E-03
   0.36350   0.94224123E-03
   0.36450   0.10108624E-02
   0.36550   0.10936641E-02
   0.36650   0.11927651E-02
   0.36750   0.13111606E-02
   0.36850   0.14525549E-02
   0.36950   0.16212062E-02
   0.37050   0.18216593E-02
   0.37150   0.20582203E-02
   0.37250   0.23338934E-02
   0.37350   0.26479338E-02
   0.37450   0.29891077E-02
   0.37550   0.33157114E-02
   0.37650   0.35034781E-02
   0.37750   0.32805470E-02
   0.37850   0.24993296E-02
   0.37950   0.20825358E-02
   0.38050   0.30609642E-02
   0.38150   0.46655727E-02
   0.38250   0.49784170E-02
   0.38350   0.39272634E-02
   0.38450   0.27783783E-02
   0.38550   0.19594370E-02
   0.38650   0.14627676E-02
   0.38750   0.11814560E-02
   0.38850   0.10240461E-02
   0.38950   0.93199452E-03
   0.39050   0.87225507E-03
   0.39150   0.83010900E-03
   0.39250   0.80932229E-03
   0.39350   0.84862759E-03
   0.39450   0.11021562E-02
   0.39550   0.15965324E-02
   0.39650   0.99242222E-03
   0.39750   0.16872962E-02
   0.39850   0.26123519E-02
   0.39950   0.25960784E-02
   0.40050   0.43309992E-02
   0.40150   0.31311023E-02
   0.40250   0.53322650E-02
   0.40350   0.58704144E-02
   0.40450   0.57234410E-02
   0.40550   0.49178675E-02
   0.40650   0.41933269E-02
   0.40750   0.36807975E-02
   0.40850   0.33141759E-02
   0.40950   0.30862556E-02
   0.41050   0.30283155E-02
   0.41150   0.30810428E-02
   0.41250   0.32179563E-02
   0.41350   0.34268664E-02
   0.41450   0.34302308E-02
   0.41550   0.30682276E-02
   0.41650   0.26807557E-02
   0.41750   0.23642401E-02
   0.41850   0.21165605E-02
   0.41950   0.19203799E-02
   0.42050   0.17582191E-02
   0.42150   0.16176896E-02
   0.42250   0.14926273E-02
   0.42350   0.13812728E-02
   0.42450   0.12835092E-02
   0.42550   0.11988996E-02
   0.42650   0.11260009E-02
   0.42750   0.10625850E-02
   0.42850   0.10062486E-02
   0.42950   0.95500832E-03
   0.43050   0.90763660E-03
   0.43150   0.86365949E-03
   0.43250   0.82310307E-03
   0.43350   0.78615622E-03
   0.43450   0.75290090E-03
   0.43550   0.72318217E-03
   0.43650   0.69661648E-03
   0.43750   0.67269226E-03
   0.43850   0.65089908E-03
   0.43950   0.63083239E-03
   0.44050   0.61224430E-03
   0.44150   0.59503940E-03
   0.44250   0.57923235E-03
   0.44350   0.56489004E-03
   0.44450   0.55207632E-03
   0.44550   0.54081035E-03
   0.44650   0.53104357E-03
   0.44750   0.52265608E-03
   0.44850   0.51546958E-03
   0.44950   0.50927221E-03
   0.45050   0.50384854E-03
   0.45150   0.49900886E-03
   0.45250   0.49460889E-03
   0.45350   0.49055519E-03
   0.45450   0.48679509E-03
   0.45550   0.48329472E-03
   0.45650   0.48001361E-03
   0.45750   0.47688570E-03
   0.45850   0.47381278E-03
   0.45950   0.47067209E-03
   0.46050   0.46733345E-03
   0.46150   0.46367818E-03
   0.46250   0.45961258E-03
   0.46350   0.45507168E-03
   0.46450   0.45001504E-03
   0.46550   0.44441869E-03
   0.46650   0.43826937E-03
   0.46750   0.43156324E-03
   0.46850   0.42430876E-03
   0.46950   0.41653012E-03
   0.47050   0.40826752E-03
   0.47150   0.39957193E-03
   0.47250   0.39049605E-03
   0.47350   0.38108489E-03
   0.47450   0.37137070E-03
   0.47550   0.36137484E-03
   0.47650   0.35111749E-03
   0.47750   0.34063295E-03
   0.47850   0.32999102E-03
   0.47950   0.31933427E-03
   0.48050   0.30898402E-03
   0.48150   0.29983415E-03
   0.48250   0.29490958E-03
   0.48350   0.30316308E-03
   0.48450   0.32164218E-03
   0.48550   0.31435522E-03
   0.48650   0.29780035E-03
   0.48750   0.28492627E-03
   0.48850   0.27572413E-03
   0.48950   0.26918694E-03
   0.49050   0.26474887E-03
   0.49150   0.26216180E-03
   0.49250   0.26135793E-03
   0.49350   0.26238311E-03
   0.49450   0.26538456E-03
   0.49550   0.27066178E-03
   0.49650   0.27886781E-03
   0.49750   0.29173819E-03
   0.49850   0.31308681E-03
   0.49950   0.34038353E-03
   0.50050   0.36816415E-03
   0.50150   0.39674330E-03
   0.50250   0.42711242E-03
   0.50350   0.46019047E-03
   0.50450   0.49703149E-03
   0.50550   0.53911685E-03
   0.50650   0.58884692E-03
   0.50750   0.65059203E-03
   0.50850   0.73330820E-03
   0.50950   0.85794646E-03
   0.51050   0.10805884E-02
   0.51150   0.15482733E-02
   0.51250   0.21832569E-02
   0.51350   0.18067978E-02
   0.51450   0.13716524E-02
   0.51550   0.12478253E-02
   0.51650   0.12591105E-02
   0.51750   0.13362418E-02
   0.51850   0.14596068E-02
   0.51950   0.16234387E-02
   0.52050   0.17902293E-02
   0.52150   0.18046083E-02
   0.52250   0.17016337E-02
   0.52350   0.15975430E-02
   0.52450   0.15109071E-02
   0.52550   0.14404372E-02
   0.52650   0.13831602E-02
   0.52750   0.13366650E-02
   0.52850   0.12992136E-02
   0.52950   0.12695475E-02
   0.53050   0.12465133E-02
   0.53150   0.12278305E-02
   0.53250   0.12039886E-02
   0.53350   0.11454001E-02
   0.53450   0.10656957E-02
   0.53550   0.99949341E-03
   0.53650   0.94726641E-03
   0.53750   0.90522924E-03
   0.53850   0.87069348E-03
   0.53950   0.84185810E-03
   0.54050   0.81741408E-03
   0.54150   0.79640554E-03
   0.54250   0.78013953E-03
   0.54350   0.77630189E-03
   0.54450   0.81378192E-03
   0.54550   0.83357422E-03
   0.54650   0.76979655E-03
   0.54750   0.75179053E-03
   0.54850   0.74442837E-03
   0.54950   0.74332586E-03
   0.55050   0.75977645E-03
   0.55150   0.94134366E-03
   0.55250   0.80260908E-03
   0.55350   0.78525150E-03
   0.55450   0.85482426E-03
   0.55550   0.94960263E-03
   0.55650   0.10586511E-02
   0.55750   0.64366492E-02
   0.55850   0.63791326E-02
   0.55950   0.73538283E-02
   0.56050   0.51617138E-02
   0.56150   0.32136415E-02
   0.56250   0.23197955E-02
   0.56350   0.19154056E-02
   0.56450   0.17054487E-02
   0.56550   0.16686936E-02
   0.56650   0.16060451E-02
   0.56750   0.15312271E-02
   0.56850   0.15656883E-02
   0.56950   0.16053497E-02
   0.57050   0.15259217E-02
   0.57150   0.14385466E-02
   0.57250   0.14292529E-02
   0.57350   0.14725341E-02
   0.57450   0.14930487E-02
   0.57550   0.14591097E-02
   0.57650   0.14142911E-02
   0.57750   0.13966161E-02
   0.57850   0.14047365E-02
   0.57950   0.14163561E-02
   0.58050   0.14149308E-02
   0.58150   0.14038077E-02
   0.58250   0.13962016E-02
   0.58350   0.13990781E-02
   0.58450   0.14081526E-02
   0.58550   0.14129868E-02
   0.58650   0.14061022E-02
   0.58750   0.13887029E-02
   0.58850   0.13683630E-02
   0.58950   0.13524762E-02
   0.59050   0.13437390E-02
   0.59150   0.13395078E-02
   0.59250   0.13339645E-02
   0.59350   0.13216806E-02
   0.59450   0.13006713E-02
   0.59550   0.12730240E-02
   0.59650   0.12430383E-02
   0.59750   0.12146893E-02
   0.59850   0.11900419E-02
   0.59950   0.11689647E-02
   0.60050   0.11497641E-02
   0.60150   0.11302712E-02
   0.60250   0.11089265E-02
   0.60350   0.10854072E-02
   0.60450   0.10605698E-02
   0.60550   0.10358855E-02
   0.60650   0.10127862E-02
   0.60750   0.99223538E-03
   0.60850   0.97461016E-03
   0.60950   0.95982378E-03
   0.61050   0.94758364E-03
   0.61150   0.93768182E-03
   0.61250   0.93023013E-03
   0.61350   0.92578528E-03
   0.61450   0.92536153E-03
   0.61550   0.93032705E-03
   0.61650   0.94179617E-03
   0.61750   0.95599896E-03
   0.61850   0.94893441E-03
   0.61950   0.92218054E-03
   0.62050   0.90260286E-03
   0.62150   0.89824351E-03
   0.62250   0.91914937E-03
   0.62350   0.95278019E-03
   0.62450   0.97536808E-03
   0.62550   0.98827260E-03
   0.62650   0.99516683E-03
   0.62750   0.99826441E-03
   0.62850   0.99887431E-03
   0.62950   0.99779852E-03
   0.63050   0.99554460E-03
   0.63150   0.99245226E-03
   0.63250   0.98877214E-03
   0.63350   0.98471751E-03
   0.63450   0.98049303E-03
   0.63550   0.97630499E-03
   0.63650   0.97236078E-03
   0.63750   0.96886005E-03
   0.63850   0.96598582E-03
   0.63950   0.96389750E-03
   0.64050   0.96272898E-03
   0.64150   0.96259080E-03
   0.64250   0.96357585E-03
   0.64350   0.96576713E-03
   0.64450   0.96924539E-03
   0.64550   0.97409665E-03
   0.64650   0.98041771E-03
   0.64750   0.98832103E-03
   0.64850   0.99793752E-03
   0.64950   0.10094212E-02
   0.65050   0.10229527E-02
   0.65150   0.10387489E-02
   0.65250   0.10570745E-02
   0.65350   0.10782641E-02
   0.65450   0.11027558E-02
   0.65550   0.11311525E-02
   0.65650   0.11643507E-02
   0.65750   0.12038772E-02
   0.65850   0.12530604E-02
   0.65950   0.13229364E-02
   0.66050   0.14823331E-02
   0.66150   0.19589569E-02
   0.66250   0.22473636E-02
   0.66350   0.15925673E-02
   0.66450   0.17133710E-02
   0.66550   0.18667449E-02
   0.66650   0.20676386E-02
   0.66750   0.23538647E-02
   0.66850   0.28500997E-02
   0.66950   0.38335763E-02
   0.67050   0.46504433E-02
   0.67150   0.53632893E-02
   0.67250   0.67333626E-02
   0.67350   0.84829275E-02
   0.67450   0.10573176E-01
   0.67550   0.12748954E-01
   0.67650   0.13897775E-01
   0.67750   0.11838397E-01
   0.67850   0.11632101E-01
   0.67950   0.12854393E-01
   0.68050   0.13337493E-01
   0.68150   0.12755297E-01
   0.68250   0.13388489E-01
   0.68350   0.15078203E-01
   0.68450   0.17020121E-01
   0.68550   0.18101735E-01
   0.68650   0.17785702E-01
   0.68750   0.16119856E-01
   0.68850   0.14154167E-01
   0.68950   0.12833544E-01
   0.69050   0.12078359E-01
   0.69150   0.11598849E-01
   0.69250   0.11074143E-01
   0.69350   0.10316716E-01
   0.69450   0.94321417E-02
   0.69550   0.86793685E-02
   0.69650   0.81981001E-02
   0.69750   0.79587996E-02
   0.69850   0.78461319E-02
   0.69950   0.77280658E-02
   0.70050   0.75129117E-02
   0.70150   0.71968525E-02
   0.70250   0.68511018E-02
   0.70350   0.65469127E-02
   0.70450   0.62831384E-02
   0.70550   0.59475927E-02
   0.70650   0.55522779E-02
   0.70750   0.52218395E-02
   0.70850   0.49509243E-02
   0.70950   0.47245091E-02
   0.71050   0.45361505E-02
   0.71150   0.43816953E-02
   0.71250   0.42559351E-02
   0.71350   0.41525322E-02
   0.71450   0.40654335E-02
   0.71550   0.39902981E-02
   0.71650   0.39251437E-02
   0.71750   0.38700590E-02
   0.71850   0.38262771E-02
   0.71950   0.37950960E-02
   0.72050   0.37770807E-02
   0.72150   0.37717742E-02
   0.72250   0.37778968E-02
   0.72350   0.37938575E-02
   0.72450   0.38183357E-02
   0.72550   0.38507290E-02
   0.72650   0.38913642E-02
   0.72750   0.39415043E-02
   0.72850   0.40033269E-02
   0.72950   0.40802835E-02
   0.73050   0.41788979E-02
   0.73150   0.43154592E-02
   0.73250   0.45220884E-02
   0.73350   0.47568791E-02
   0.73450   0.49587884E-02
   0.73550   0.51349690E-02
   0.73650   0.52957549E-02
   0.73750   0.54471721E-02
   0.73850   0.55928729E-02
   0.73950   0.57352269E-02
   0.74050   0.58758352E-02
   0.74150   0.60157953E-02
   0.74250   0.61558681E-02
   0.74350   0.62966021E-02
   0.74450   0.64384323E-02
   0.74550   0.65817535E-02
   0.74650   0.67269756E-02
   0.74750   0.68745706E-02
   0.74850   0.70251231E-02
   0.74950   0.71794363E-02
   0.75050   0.73387460E-02
   0.75150   0.75051910E-02
   0.75250   0.76828860E-02
   0.75350   0.78807222E-02
   0.75450   0.81212828E-02
   0.75550   0.84785437E-02
   0.75650   0.93038967E-02
   0.75750   0.10549168E-01
   0.75850   0.88814227E-02
   0.75950   0.89337751E-02
   0.76050   0.10291019E-01
   0.76150   0.98409988E-02
   0.76250   0.97395955E-02
   0.76350   0.10027397E-01
   0.76450   0.10500622E-01
   0.76550   0.11211839E-01
   0.76650   0.12342311E-01
   0.76750   0.14217819E-01
   0.76850   0.17004851E-01
   0.76950   0.19807020E-01
   0.77050   0.19976929E-01
   0.77150   0.19937744E-01
   0.77250   0.19987468E-01
   0.77350   0.19602083E-01
   0.77450   0.19159906E-01
   0.77550   0.17875426E-01
   0.77650   0.17037399E-01
   0.77750   0.17895110E-01
   0.77850   0.17658468E-01
   0.77950   0.15497012E-01
   0.78050   0.14310646E-01
   0.78150   0.14227903E-01
   0.78250   0.14632788E-01
   0.78350   0.14864495E-01
   0.78450   0.14450776E-01
   0.78550   0.13692585E-01
   0.78650   0.13193133E-01
   0.78750   0.13211356E-01
   0.78850   0.13490440E-01
   0.78950   0.13579486E-01
   0.79050   0.13385557E-01
   0.79150   0.13111139E-01
   0.79250   0.12997298E-01
   0.79350   0.13237012E-01
   0.79450   0.13855052E-01
   0.79550   0.14569177E-01
   0.79650   0.14997294E-01
   0.79750   0.15031642E-01
   0.79850   0.14808984E-01
   0.79950   0.14502726E-01
   0.80050   0.14250286E-01
   0.80150   0.14160821E-01
   0.80250   0.14309288E-01
   0.80350   0.14692876E-01
   0.80450   0.15198428E-01
   0.80550   0.15661193E-01
   0.80650   0.15977554E-01
   0.80750   0.16142977E-01
   0.80850   0.16207350E-01
   0.80950   0.16226072E-01
   0.81050   0.16238246E-01
   0.81150   0.16263157E-01
   0.81250   0.16305832E-01
   0.81350   0.16367007E-01
   0.81450   0.16451193E-01
   0.81550   0.16567605E-01
   0.81650   0.16724819E-01
   0.81750   0.16924329E-01
   0.81850   0.17157445E-01
   0.81950   0.17407361E-01
   0.82050   0.17655652E-01
   0.82150   0.17890716E-01
   0.82250   0.18115474E-01
   0.82350   0.18354414E-01
   0.82450   0.18668024E-01
   0.82550   0.19194288E-01
   0.82650   0.19996073E-01
   0.82750   0.20756502E-01
   0.82850   0.21420931E-01
   0.82950   0.22039080E-01
   0.83050   0.22634754E-01
   0.83150   0.23216372E-01
   0.83250   0.23825727E-01
   0.83350   0.25251336E-01
   0.83450   0.27154885E-01
   0.83550   0.26646890E-01
   0.83650   0.26958449E-01
   0.83750   0.27504131E-01
   0.83850   0.28179437E-01
   0.83950   0.28972734E-01
   0.84050   0.29892275E-01
   0.84150   0.30929754E-01
   0.84250   0.31916659E-01
   0.84350   0.32128338E-01
   0.84450   0.31754985E-01
   0.84550   0.31919625E-01
   0.84650   0.33277199E-01
   0.84750   0.35372715E-01
   0.84850   0.36567245E-01
   0.84950   0.37780050E-01
   0.85050   0.40269174E-01
   0.85150   0.44107176E-01
   0.85250   0.47071040E-01
   0.85350   0.44133428E-01
   0.85450   0.40675040E-01
   0.85550   0.39128866E-01
   0.85650   0.38893793E-01
   0.85750   0.39695147E-01
   0.85850   0.41765615E-01
   0.85950   0.45688760E-01
   0.86050   0.47934204E-01
   0.86150   0.46092246E-01
   0.86250   0.50922684E-01
   0.86350   0.60893811E-01
   0.86450   0.65730371E-01
   0.86550   0.64835303E-01
   0.86650   0.62539391E-01
   0.86750   0.61212122E-01
   0.86850   0.63186452E-01
   0.86950   0.68728216E-01
   0.87050   0.76114781E-01
   0.87150   0.79720654E-01
   0.87250   0.77468991E-01
   0.87350   0.74972332E-01
   0.87450   0.75461186E-01
   0.87550   0.78500539E-01
   0.87650   0.80327272E-01
   0.87750   0.76798879E-01
   0.87850   0.72091050E-01
   0.87950   0.71446247E-01
   0.88050   0.75330906E-01
   0.88150   0.81572920E-01
   0.88250   0.86252466E-01
   0.88350   0.87282702E-01
   0.88450   0.86002424E-01
   0.88550   0.84234960E-01
   0.88650   0.82793541E-01
   0.88750   0.81754580E-01
   0.88850   0.81022903E-01
   0.88950   0.80732018E-01
   0.89050   0.81270374E-01
   0.89150   0.82990780E-01
   0.89250   0.85745983E-01
   0.89350   0.88739373E-01
   0.89450   0.91149889E-01
   0.89550   0.92723072E-01
   0.89650   0.93663283E-01
   0.89750   0.94332844E-01
   0.89850   0.95146015E-01
   0.89950   0.96660711E-01
   0.90050   0.99794775E-01
   0.90150   0.10312911E+00
   0.90250   0.10811461E+00
   0.90350   0.11372004E+00
   0.90450   0.11932642E+00
   0.90550   0.12489348E+00
   0.90650   0.13035856E+00
   0.90750   0.13567948E+00
   0.90850   0.14083114E+00
   0.90950   0.14579150E+00
   0.91050   0.15053888E+00
   0.91150   0.15507497E+00
   0.91250   0.15947416E+00
   0.91350   0.16391790E+00
   0.91450   0.16842178E+00
   0.91550   0.17096820E+00
   0.91650   0.16969670E+00
   0.91750   0.17312580E+00
   0.91850   0.18164569E+00
   0.91950   0.19245888E+00
   0.92050   0.20298174E+00
   0.92150   0.21098064E+00
   0.92250   0.21641038E+00
   0.92350   0.22128026E+00
   0.92450   0.22632495E+00
   0.92550   0.22813423E+00
   0.92650   0.22852638E+00
   0.92750   0.23205052E+00
   0.92850   0.23838501E+00
   0.92950   0.24627125E+00
   0.93050   0.25522637E+00
   0.93150   0.26529250E+00
   0.93250   0.27676094E+00
   0.93350   0.29012176E+00
   0.93450   0.30605194E+00
   0.93550   0.32484287E+00
   0.93650   0.34459034E+00
   0.93750   0.35891590E+00
   0.93850   0.36026517E+00
   0.93950   0.35383362E+00
   0.94050   0.34976560E+00
   0.94150   0.35150495E+00
   0.94250   0.35832345E+00
   0.94350   0.36791727E+00
   0.94450   0.37832972E+00
   0.94550   0.38933665E+00
   0.94650   0.40227082E+00
   0.94750   0.41626030E+00
   0.94850   0.43010095E+00
   0.94950   0.44299504E+00
   0.95050   0.45498815E+00
   0.95150   0.46716166E+00
   0.95250   0.48099035E+00
   0.95350   0.49737144E+00
   0.95450   0.51638973E+00
   0.95550   0.53882629E+00
   0.95650   0.56418741E+00
   0.95750   0.58793503E+00
   0.95850   0.60747325E+00
   0.95950   0.62832099E+00
   0.96050   0.65102798E+00
   0.96150   0.67513520E+00
   0.96250   0.70049125E+00
   0.96350   0.72692132E+00
   0.96450   0.75418168E+00
   0.96550   0.78198463E+00
   0.96650   0.81023020E+00
   0.96750   0.83957726E+00
   0.96850   0.87155634E+00
   0.96950   0.90711308E+00
   0.97050   0.94560122E+00
   0.97150   0.98580742E+00
   0.97250   0.10268892E+01
   0.97350   0.10683318E+01
   0.97450   0.11095935E+01
   0.97550   0.11501862E+01
   0.97650   0.11903145E+01
   0.97750   0.12289350E+01
   0.97850   0.12646940E+01
   0.97950   0.12969548E+01
   0.98050   0.13255354E+01
   0.98150   0.13504863E+01
   0.98250   0.13723859E+01
   0.98350   0.13937935E+01
   0.98450   0.14218059E+01
   0.98550   0.14666666E+01
   0.98650   0.15288903E+01
   0.98750   0.15946883E+01
   0.98850   0.16668818E+01
   0.98950   0.17544109E+01
   0.99050   0.18305678E+01
   0.99150   0.18937411E+01
   0.99250   0.19406962E+01
   0.99350   0.19661618E+01
   0.99450   0.19818832E+01
   0.99550   0.20007830E+01
   0.99650   0.20226943E+01
   0.99750   0.20486000E+01
   0.99850   0.20773971E+01
   0.99950   0.21069112E+01
