# Transmission, k-averaged
# Date: 2021-05-13
#   E [eV]           T [G0]
   0.00050   0.95178522E-01
   0.00150   0.15017267E+00
   0.00250   0.38254222E+00
   0.00350   0.15327750E+00
   0.00450   0.24638338E+00
   0.00550   0.37776738E+00
   0.00650   0.30808952E-01
   0.00750   0.28326526E-01
   0.00850   0.55103447E-01
   0.00950   0.87160930E-01
   0.01050   0.14020680E+00
   0.01150   0.19448568E+00
   0.01250   0.29974014E+00
   0.01350   0.23697418E+00
   0.01450   0.13106108E+00
   0.01550   0.53652644E-01
   0.01650   0.35529237E-01
   0.01750   0.47776762E-01
   0.01850   0.48587497E-01
   0.01950   0.34923162E-02
   0.02050   0.24564084E-01
   0.02150   0.24572937E-02
   0.02250   0.36824625E-02
   0.02350   0.29531806E-02
   0.02450   0.72198175E-03
   0.02550   0.20520142E-02
   0.02650   0.24136428E-02
   0.02750   0.60369371E-03
   0.02850   0.87558210E-03
   0.02950   0.83636362E-02
   0.03050   0.21915825E-02
   0.03150   0.97500725E-03
   0.03250   0.14891378E-02
   0.03350   0.10322413E-01
   0.03450   0.62673138E-02
   0.03550   0.18736278E-02
   0.03650   0.18584555E-02
   0.03750   0.50166016E-02
   0.03850   0.45688801E-01
   0.03950   0.53406633E-02
   0.04050   0.25704505E-02
   0.04150   0.30159166E-02
   0.04250   0.92533045E-02
   0.04350   0.34244221E-01
   0.04450   0.46422547E-02
   0.04550   0.21118701E-02
   0.04650   0.19045837E-02
   0.04750   0.27843490E-02
   0.04850   0.35907689E-02
   0.04950   0.17763623E-02
   0.05050   0.87241904E-03
   0.05150   0.60870423E-03
   0.05250   0.58074028E-03
   0.05350   0.67883747E-03
   0.05450   0.71893225E-03
   0.05550   0.51221508E-03
   0.05650   0.31727960E-03
   0.05750   0.22550592E-03
   0.05850   0.19473028E-03
   0.05950   0.19670106E-03
   0.06050   0.20610851E-03
   0.06150   0.18579637E-03
   0.06250   0.13803132E-03
   0.06350   0.98994984E-04
   0.06450   0.77798359E-04
   0.06550   0.69295806E-04
   0.06650   0.68177047E-04
   0.06750   0.68557762E-04
   0.06850   0.63330066E-04
   0.06950   0.51741379E-04
   0.07050   0.40302777E-04
   0.07150   0.32780670E-04
   0.07250   0.29080884E-04
   0.07350   0.28123548E-04
   0.07450   0.28572333E-04
   0.07550   0.28503699E-04
   0.07650   0.26271789E-04
   0.07750   0.22472583E-04
   0.07850   0.18983712E-04
   0.07950   0.16804503E-04
   0.08050   0.16028642E-04
   0.08150   0.16428570E-04
   0.08250   0.17533062E-04
   0.08350   0.18420606E-04
   0.08450   0.18097502E-04
   0.08550   0.16632401E-04
   0.08650   0.15058501E-04
   0.08750   0.14208205E-04
   0.08850   0.14432506E-04
   0.08950   0.15864081E-04
   0.09050   0.18363966E-04
   0.09150   0.20626911E-04
   0.09250   0.19369902E-04
   0.09350   0.15630447E-04
   0.09450   0.12602331E-04
   0.09550   0.10769678E-04
   0.09650   0.98820565E-05
   0.09750   0.96320482E-05
   0.09850   0.96916910E-05
   0.09950   0.96660306E-05
   0.10050   0.92271521E-05
   0.10150   0.83824279E-05
   0.10250   0.74352556E-05
   0.10350   0.66649495E-05
   0.10450   0.61814062E-05
   0.10550   0.59737181E-05
   0.10650   0.59663325E-05
   0.10750   0.60320767E-05
   0.10850   0.60095822E-05
   0.10950   0.57814636E-05
   0.11050   0.53646586E-05
   0.11150   0.48852226E-05
   0.11250   0.44672638E-05
   0.11350   0.41717158E-05
   0.11450   0.40029513E-05
   0.11550   0.39300221E-05
   0.11650   0.38990770E-05
   0.11750   0.38457806E-05
   0.11850   0.37206748E-05
   0.11950   0.35171645E-05
   0.12050   0.32721018E-05
   0.12150   0.30361282E-05
   0.12250   0.28455854E-05
   0.12350   0.27145391E-05
   0.12450   0.26392090E-05
   0.12550   0.26038749E-05
   0.12650   0.25855868E-05
   0.12750   0.25601844E-05
   0.12850   0.25109575E-05
   0.12950   0.24358621E-05
   0.13050   0.23471086E-05
   0.13150   0.22632692E-05
   0.13250   0.22006361E-05
   0.13350   0.21687997E-05
   0.13450   0.21700837E-05
   0.13550   0.22004626E-05
   0.13650   0.22507927E-05
   0.13750   0.23088312E-05
   0.13850   0.23628475E-05
   0.13950   0.24062067E-05
   0.14050   0.24404271E-05
   0.14150   0.24745782E-05
   0.14250   0.25216411E-05
   0.14350   0.25943812E-05
   0.14450   0.27024889E-05
   0.14550   0.28510119E-05
   0.14650   0.30394503E-05
   0.14750   0.32614855E-05
   0.14850   0.35062551E-05
   0.14950   0.37621667E-05
   0.15050   0.40226582E-05
   0.15150   0.42911288E-05
   0.15250   0.45821112E-05
   0.15350   0.49183341E-05
   0.15450   0.53257259E-05
   0.15550   0.58283017E-05
   0.15650   0.64433857E-05
   0.15750   0.71770423E-05
   0.15850   0.80208738E-05
   0.15950   0.89533632E-05
   0.16050   0.99488916E-05
   0.16150   0.10993007E-04
   0.16250   0.12096252E-04
   0.16350   0.13298093E-04
   0.16450   0.14658923E-04
   0.16550   0.16244350E-04
   0.16650   0.18106308E-04
   0.16750   0.20263060E-04
   0.16850   0.22681017E-04
   0.16950   0.25266323E-04
   0.17050   0.27876486E-04
   0.17150   0.30350846E-04
   0.17250   0.32530261E-04
   0.17350   0.34196786E-04
   0.17450   0.34765664E-04
   0.17550   0.32527809E-04
   0.17650   0.27692140E-04
   0.17750   0.23948895E-04
   0.17850   0.21405058E-04
   0.17950   0.19529130E-04
   0.18050   0.18026783E-04
   0.18150   0.16746408E-04
   0.18250   0.15610009E-04
   0.18350   0.14578587E-04
   0.18450   0.13633332E-04
   0.18550   0.12764760E-04
   0.18650   0.11966598E-04
   0.18750   0.11232723E-04
   0.18850   0.10556055E-04
   0.18950   0.99286290E-05
   0.19050   0.93422968E-05
   0.19150   0.87896651E-05
   0.19250   0.82649931E-05
   0.19350   0.77647965E-05
   0.19450   0.72879943E-05
   0.19550   0.68355371E-05
   0.19650   0.64096266E-05
   0.19750   0.60127450E-05
   0.19850   0.56467575E-05
   0.19950   0.53122958E-05
   0.20050   0.50085005E-05
   0.20150   0.47331173E-05
   0.20250   0.44828616E-05
   0.20350   0.42539496E-05
   0.20450   0.40426844E-05
   0.20550   0.38459812E-05
   0.20650   0.36617241E-05
   0.20750   0.34888749E-05
   0.20850   0.33273070E-05
   0.20950   0.31774330E-05
   0.21050   0.30397291E-05
   0.21150   0.29142843E-05
   0.21250   0.28004688E-05
   0.21350   0.26967632E-05
   0.21450   0.26007856E-05
   0.21550   0.25097308E-05
   0.21650   0.24230696E-05
   0.21750   0.23609059E-05
   0.21850   0.23716022E-05
   0.21950   0.24232977E-05
   0.22050   0.24857557E-05
   0.22150   0.25543804E-05
   0.22250   0.26305142E-05
   0.22350   0.27169176E-05
   0.22450   0.28166389E-05
   0.22550   0.29326122E-05
   0.22650   0.30675660E-05
   0.22750   0.32242147E-05
   0.22850   0.34057741E-05
   0.22950   0.36168913E-05
   0.23050   0.38650733E-05
   0.23150   0.41626058E-05
   0.23250   0.45277880E-05
   0.23350   0.49729920E-05
   0.23450   0.53709718E-05
   0.23550   0.52795017E-05
   0.23650   0.49048417E-05
   0.23750   0.45304628E-05
   0.23850   0.41992948E-05
   0.23950   0.39079860E-05
   0.24050   0.36484473E-05
   0.24150   0.34142986E-05
   0.24250   0.32015055E-05
   0.24350   0.30078306E-05
   0.24450   0.28320708E-05
   0.24550   0.26733869E-05
   0.24650   0.25308461E-05
   0.24750   0.24031976E-05
   0.24850   0.22888455E-05
   0.24950   0.21859548E-05
   0.25050   0.20926279E-05
   0.25150   0.20071000E-05
   0.25250   0.19279041E-05
   0.25350   0.18539790E-05
   0.25450   0.17846951E-05
   0.25550   0.17198028E-05
   0.25650   0.16593212E-05
   0.25750   0.16034014E-05
   0.25850   0.15521945E-05
   0.25950   0.15057529E-05
   0.26050   0.14639770E-05
   0.26150   0.14266039E-05
   0.26250   0.13932348E-05
   0.26350   0.13633849E-05
   0.26450   0.13365461E-05
   0.26550   0.13122489E-05
   0.26650   0.12901113E-05
   0.26750   0.12698715E-05
   0.26850   0.12513942E-05
   0.26950   0.12346571E-05
   0.27050   0.12197190E-05
   0.27150   0.12066785E-05
   0.27250   0.11956323E-05
   0.27350   0.11866395E-05
   0.27450   0.11796948E-05
   0.27550   0.11747160E-05
   0.27650   0.11715425E-05
   0.27750   0.11699451E-05
   0.27850   0.11696434E-05
   0.27950   0.11703290E-05
   0.28050   0.11716911E-05
   0.28150   0.11734386E-05
   0.28250   0.11753189E-05
   0.28350   0.11771272E-05
   0.28450   0.11787071E-05
   0.28550   0.11799395E-05
   0.28650   0.11807232E-05
   0.28750   0.11809464E-05
   0.28850   0.11804553E-05
   0.28950   0.11790196E-05
   0.29050   0.11762963E-05
   0.29150   0.11717933E-05
   0.29250   0.11648202E-05
   0.29350   0.11544024E-05
   0.29450   0.11390856E-05
   0.29550   0.11164207E-05
   0.29650   0.10814343E-05
   0.29750   0.10214037E-05
   0.29850   0.89890091E-06
   0.29950   0.68728303E-06
   0.30050   0.50761702E-06
   0.30150   0.38867680E-06
   0.30250   0.30668687E-06
   0.30350   0.24708640E-06
   0.30450   0.20203949E-06
   0.30550   0.16702943E-06
   0.30650   0.13926118E-06
   0.30750   0.11690155E-06
   0.30850   0.98690698E-07
   0.30950   0.83729063E-07
   0.31050   0.71353668E-07
   0.31150   0.61062863E-07
   0.31250   0.52468657E-07
   0.31350   0.45265612E-07
   0.31450   0.39209798E-07
   0.31550   0.34104282E-07
   0.31650   0.29788758E-07
   0.31750   0.26131952E-07
   0.31850   0.23025919E-07
   0.31950   0.20381638E-07
   0.32050   0.18125544E-07
   0.32150   0.16196751E-07
   0.32250   0.14544796E-07
   0.32350   0.13127802E-07
   0.32450   0.11910954E-07
   0.32550   0.10865262E-07
   0.32650   0.99665360E-08
   0.32750   0.91945402E-08
   0.32850   0.85323144E-08
   0.32950   0.79656086E-08
   0.33050   0.74824351E-08
   0.33150   0.70726975E-08
   0.33250   0.67279062E-08
   0.33350   0.64409420E-08
   0.33450   0.62058763E-08
   0.33550   0.60178293E-08
   0.33650   0.58728671E-08
   0.33750   0.57679204E-08
   0.33850   0.57007377E-08
   0.33950   0.56698530E-08
   0.34050   0.56745773E-08
   0.34150   0.57150058E-08
   0.34250   0.57920451E-08
   0.34350   0.59074559E-08
   0.34450   0.60639107E-08
   0.34550   0.62650716E-08
   0.34650   0.65156835E-08
   0.34750   0.68216872E-08
   0.34850   0.71903492E-08
   0.34950   0.76304136E-08
   0.35050   0.81522744E-08
   0.35150   0.87681711E-08
   0.35250   0.94923989E-08
   0.35350   0.10341557E-07
   0.35450   0.11334812E-07
   0.35550   0.12494223E-07
   0.35650   0.13845137E-07
   0.35750   0.15416772E-07
   0.35850   0.17243146E-07
   0.35950   0.19364768E-07
   0.36050   0.21831349E-07
   0.36150   0.24699522E-07
   0.36250   0.27929916E-07
   0.36350   0.31005289E-07
   0.36450   0.33693027E-07
   0.36550   0.36142133E-07
   0.36650   0.38389942E-07
   0.36750   0.40431477E-07
   0.36850   0.42259060E-07
   0.36950   0.43874774E-07
   0.37050   0.45295259E-07
   0.37150   0.46553602E-07
   0.37250   0.47700155E-07
   0.37350   0.48803347E-07
   0.37450   0.49951794E-07
   0.37550   0.51259274E-07
   0.37650   0.52875166E-07
   0.37750   0.55005025E-07
   0.37850   0.57950274E-07
   0.37950   0.62180980E-07
   0.38050   0.68409634E-07
   0.38150   0.76774697E-07
   0.38250   0.80485854E-07
   0.38350   0.75036468E-07
   0.38450   0.67422661E-07
   0.38550   0.60249370E-07
   0.38650   0.53973860E-07
   0.38750   0.48596636E-07
   0.38850   0.44019568E-07
   0.38950   0.40131042E-07
   0.39050   0.36828371E-07
   0.39150   0.34023206E-07
   0.39250   0.31641768E-07
   0.39350   0.29623589E-07
   0.39450   0.27919839E-07
   0.39550   0.26491726E-07
   0.39650   0.25309024E-07
   0.39750   0.24348797E-07
   0.39850   0.23594314E-07
   0.39950   0.23034140E-07
   0.40050   0.22661361E-07
   0.40150   0.22472957E-07
   0.40250   0.22469266E-07
   0.40350   0.22653534E-07
   0.40450   0.23031486E-07
   0.40550   0.23610836E-07
   0.40650   0.24400560E-07
   0.40750   0.25409548E-07
   0.40850   0.26643693E-07
   0.40950   0.28099118E-07
   0.41050   0.29744799E-07
   0.41150   0.31472840E-07
   0.41250   0.32931887E-07
   0.41350   0.32892732E-07
   0.41450   0.28551414E-07
   0.41550   0.22537533E-07
   0.41650   0.18438653E-07
   0.41750   0.15747297E-07
   0.41850   0.13874685E-07
   0.41950   0.12497689E-07
   0.42050   0.11431892E-07
   0.42150   0.10562148E-07
   0.42250   0.98104636E-08
   0.42350   0.91210817E-08
   0.42450   0.84538874E-08
   0.42550   0.77819688E-08
   0.42650   0.70910016E-08
   0.42750   0.63788166E-08
   0.42850   0.56540350E-08
   0.42950   0.49332742E-08
   0.43050   0.42371817E-08
   0.43150   0.35861178E-08
   0.43250   0.29965270E-08
   0.43350   0.24787357E-08
   0.43450   0.20364037E-08
   0.43550   0.16673311E-08
   0.43650   0.13650567E-08
   0.43750   0.11206692E-08
   0.43850   0.92440949E-09
   0.43950   0.76685847E-09
   0.44050   0.63966921E-09
   0.44150   0.53590882E-09
   0.44250   0.45011669E-09
   0.44350   0.37818415E-09
   0.44450   0.31714181E-09
   0.44550   0.26491659E-09
   0.44650   0.22009672E-09
   0.44750   0.18172631E-09
   0.44850   0.14913899E-09
   0.44950   0.12183174E-09
   0.45050   0.99376417E-10
   0.45150   0.81363020E-10
   0.45250   0.67368520E-10
   0.45350   0.56944748E-10
   0.45450   0.49619392E-10
   0.45550   0.44904972E-10
   0.45650   0.42311845E-10
   0.45750   0.41362094E-10
   0.45850   0.41602381E-10
   0.45950   0.42614520E-10
   0.46050   0.44023396E-10
   0.46150   0.45502352E-10
   0.46250   0.46776607E-10
   0.46350   0.47625712E-10
   0.46450   0.47886192E-10
   0.46550   0.47455873E-10
   0.46650   0.46301567E-10
   0.46750   0.44471656E-10
   0.46850   0.42114645E-10
   0.46950   0.39502564E-10
   0.47050   0.37053385E-10
   0.47150   0.35336543E-10
   0.47250   0.35029691E-10
   0.47350   0.36777168E-10
   0.47450   0.40903343E-10
   0.47550   0.47002950E-10
   0.47650   0.53606293E-10
   0.47750   0.58314707E-10
   0.47850   0.58705374E-10
   0.47950   0.53664653E-10
   0.48050   0.44135289E-10
   0.48150   0.32577326E-10
   0.48250   0.21622513E-10
   0.48350   0.13002762E-10
   0.48450   0.72874285E-11
   0.48550   0.42029639E-11
   0.48650   0.30902334E-11
   0.48750   0.32403520E-11
   0.48850   0.40624813E-11
   0.48950   0.51325550E-11
   0.49050   0.61816229E-11
   0.49150   0.70629119E-11
   0.49250   0.77170926E-11
   0.49350   0.81430331E-11
   0.49450   0.83753100E-11
   0.49550   0.84673648E-11
   0.49650   0.84782823E-11
   0.49750   0.84600374E-11
   0.49850   0.84479767E-11
   0.49950   0.85002404E-11
   0.50050   0.86618065E-11
   0.50150   0.89325717E-11
   0.50250   0.93017599E-11
   0.50350   0.97534385E-11
   0.50450   0.10268145E-10
   0.50550   0.10824766E-10
   0.50650   0.11402415E-10
   0.50750   0.11982183E-10
   0.50850   0.12548893E-10
   0.50950   0.13093211E-10
   0.51050   0.13614977E-10
   0.51150   0.14129271E-10
   0.51250   0.14677157E-10
   0.51350   0.15340307E-10
   0.51450   0.16240927E-10
   0.51550   0.17455868E-10
   0.51650   0.18760755E-10
   0.51750   0.19540262E-10
   0.51850   0.19587686E-10
   0.51950   0.19592755E-10
   0.52050   0.20103766E-10
   0.52150   0.21014390E-10
   0.52250   0.21979158E-10
   0.52350   0.22894671E-10
   0.52450   0.23772989E-10
   0.52550   0.24624585E-10
   0.52650   0.25449438E-10
   0.52750   0.26241865E-10
   0.52850   0.26993961E-10
   0.52950   0.27697554E-10
   0.53050   0.28345746E-10
   0.53150   0.28934832E-10
   0.53250   0.29466908E-10
   0.53350   0.29945598E-10
   0.53450   0.30365585E-10
   0.53550   0.30724534E-10
   0.53650   0.31021793E-10
   0.53750   0.31258950E-10
   0.53850   0.31438737E-10
   0.53950   0.31571874E-10
   0.54050   0.31789651E-10
   0.54150   0.32649702E-10
   0.54250   0.32711396E-10
   0.54350   0.31559338E-10
   0.54450   0.30933846E-10
   0.54550   0.30648300E-10
   0.54650   0.30477929E-10
   0.54750   0.30347471E-10
   0.54850   0.30234953E-10
   0.54950   0.30134902E-10
   0.55050   0.30046878E-10
   0.55150   0.29971768E-10
   0.55250   0.29910515E-10
   0.55350   0.29863681E-10
   0.55450   0.29831335E-10
   0.55550   0.29813072E-10
   0.55650   0.29808048E-10
   0.55750   0.29815067E-10
   0.55850   0.29832668E-10
   0.55950   0.29859192E-10
   0.56050   0.29892852E-10
   0.56150   0.29931807E-10
   0.56250   0.29974211E-10
   0.56350   0.30018241E-10
   0.56450   0.30062165E-10
   0.56550   0.30104332E-10
   0.56650   0.30143218E-10
   0.56750   0.30177437E-10
   0.56850   0.30205734E-10
   0.56950   0.30227026E-10
   0.57050   0.30240383E-10
   0.57150   0.30245060E-10
   0.57250   0.30240484E-10
   0.57350   0.30226276E-10
   0.57450   0.30202254E-10
   0.57550   0.30168437E-10
   0.57650   0.30125038E-10
   0.57750   0.30072483E-10
   0.57850   0.30011375E-10
   0.57950   0.29942510E-10
   0.58050   0.29866845E-10
   0.58150   0.29785476E-10
   0.58250   0.29699621E-10
   0.58350   0.29610602E-10
   0.58450   0.29519800E-10
   0.58550   0.29428633E-10
   0.58650   0.29338542E-10
   0.58750   0.29250959E-10
   0.58850   0.29167287E-10
   0.58950   0.29088882E-10
   0.59050   0.29017053E-10
   0.59150   0.28953036E-10
   0.59250   0.28898007E-10
   0.59350   0.28853074E-10
   0.59450   0.28819279E-10
   0.59550   0.28797605E-10
   0.59650   0.28788987E-10
   0.59750   0.28794319E-10
   0.59850   0.28814463E-10
   0.59950   0.28850262E-10
   0.60050   0.28902554E-10
   0.60150   0.28972181E-10
   0.60250   0.29060008E-10
   0.60350   0.29166940E-10
   0.60450   0.29293932E-10
   0.60550   0.29442029E-10
   0.60650   0.29612372E-10
   0.60750   0.29806244E-10
   0.60850   0.30025107E-10
   0.60950   0.30270658E-10
   0.61050   0.30544900E-10
   0.61150   0.30850256E-10
   0.61250   0.31189735E-10
   0.61350   0.31567225E-10
   0.61450   0.31988016E-10
   0.61550   0.32459913E-10
   0.61650   0.32995367E-10
   0.61750   0.33611822E-10
   0.61850   0.34280159E-10
   0.61950   0.34915154E-10
   0.62050   0.35607024E-10
   0.62150   0.36636683E-10
   0.62250   0.38810097E-10
   0.62350   0.42336475E-10
   0.62450   0.46057175E-10
   0.62550   0.49734602E-10
   0.62650   0.53416403E-10
   0.62750   0.57148664E-10
   0.62850   0.60958925E-10
   0.62950   0.64861096E-10
   0.63050   0.68860147E-10
   0.63150   0.72955544E-10
   0.63250   0.77143944E-10
   0.63350   0.81421404E-10
   0.63450   0.85785302E-10
   0.63550   0.90235888E-10
   0.63650   0.94777589E-10
   0.63750   0.99419847E-10
   0.63850   0.10417760E-09
   0.63950   0.10907129E-09
   0.64050   0.11412634E-09
   0.64150   0.11937228E-09
   0.64250   0.12484132E-09
   0.64350   0.13056678E-09
   0.64450   0.13658105E-09
   0.64550   0.14291371E-09
   0.64650   0.14958947E-09
   0.64750   0.15662649E-09
   0.64850   0.16403504E-09
   0.64950   0.17181652E-09
   0.65050   0.17996339E-09
   0.65150   0.18845947E-09
   0.65250   0.19728127E-09
   0.65350   0.20639988E-09
   0.65450   0.21578353E-09
   0.65550   0.22540077E-09
   0.65650   0.23522390E-09
   0.65750   0.24523270E-09
   0.65850   0.25541777E-09
   0.65950   0.26578398E-09
   0.66050   0.27635280E-09
   0.66150   0.28716407E-09
   0.66250   0.29827663E-09
   0.66350   0.30976771E-09
   0.66450   0.32173109E-09
   0.66550   0.33427375E-09
   0.66650   0.34751160E-09
   0.66750   0.36156406E-09
   0.66850   0.37654777E-09
   0.66950   0.39257023E-09
   0.67050   0.40972331E-09
   0.67150   0.42807752E-09
   0.67250   0.44767728E-09
   0.67350   0.46853815E-09
   0.67450   0.49064597E-09
   0.67550   0.51395921E-09
   0.67650   0.53841409E-09
   0.67750   0.56393318E-09
   0.67850   0.59043803E-09
   0.67950   0.61786493E-09
   0.68050   0.64618477E-09
   0.68150   0.67542616E-09
   0.68250   0.70570333E-09
   0.68350   0.73725043E-09
   0.68450   0.77047441E-09
   0.68550   0.80607820E-09
   0.68650   0.84556712E-09
   0.68750   0.89283969E-09
   0.68850   0.94986530E-09
   0.68950   0.10139584E-08
   0.69050   0.10840824E-08
   0.69150   0.11599662E-08
   0.69250   0.12414949E-08
   0.69350   0.13286204E-08
   0.69450   0.14213639E-08
   0.69550   0.15198400E-08
   0.69650   0.16242876E-08
   0.69750   0.17351023E-08
   0.69850   0.18528689E-08
   0.69950   0.19783915E-08
   0.70050   0.21127173E-08
   0.70150   0.22571538E-08
   0.70250   0.24132574E-08
   0.70350   0.25827540E-08
   0.70450   0.27671574E-08
   0.70550   0.29670040E-08
   0.70650   0.31869123E-08
   0.70750   0.34356751E-08
   0.70850   0.37191263E-08
   0.70950   0.40424335E-08
   0.71050   0.44109334E-08
   0.71150   0.48302851E-08
   0.71250   0.53066085E-08
   0.71350   0.58466982E-08
   0.71450   0.64583237E-08
   0.71550   0.71506308E-08
   0.71650   0.79346547E-08
   0.71750   0.88239540E-08
   0.71850   0.98353645E-08
   0.71950   0.10989888E-07
   0.72050   0.12313730E-07
   0.72150   0.13839496E-07
   0.72250   0.15607579E-07
   0.72350   0.17667817E-07
   0.72450   0.20081526E-07
   0.72550   0.22924127E-07
   0.72650   0.26288838E-07
   0.72750   0.30292448E-07
   0.72850   0.35085854E-07
   0.72950   0.40877715E-07
   0.73050   0.48003717E-07
   0.73150   0.57194161E-07
   0.73250   0.70313703E-07
   0.73350   0.88120309E-07
   0.73450   0.10938438E-06
   0.73550   0.13479485E-06
   0.73650   0.16579247E-06
   0.73750   0.20429256E-06
   0.73850   0.25288108E-06
   0.73950   0.31512855E-06
   0.74050   0.39604572E-06
   0.74150   0.50276458E-06
   0.74250   0.64558373E-06
   0.74350   0.83961299E-06
   0.74450   0.11074255E-05
   0.74550   0.14834505E-05
   0.74650   0.20214679E-05
   0.74750   0.28078273E-05
   0.74850   0.39856759E-05
   0.74950   0.58013916E-05
   0.75050   0.86984210E-05
   0.75150   0.13519521E-04
   0.75250   0.21978825E-04
   0.75350   0.37882088E-04
   0.75450   0.70739530E-04
   0.75550   0.14871647E-03
   0.75650   0.38091445E-03
   0.75750   0.14652644E-02
   0.75850   0.17953658E-01
   0.75950   0.65253698E-02
   0.76050   0.13275556E-02
   0.76150   0.54508974E-02
   0.76250   0.13754881E-02
   0.76350   0.10889219E-02
   0.76450   0.10950885E-02
   0.76550   0.12807555E-02
   0.76650   0.17038652E-02
   0.76750   0.27213490E-02
   0.76850   0.64766142E-02
   0.76950   0.70643380E-01
   0.77050   0.24361070E-02
   0.77150   0.50886027E-02
   0.77250   0.97091608E-01
   0.77350   0.11160877E-01
   0.77450   0.47658524E-02
   0.77550   0.45626815E-02
   0.77650   0.11183496E-01
   0.77750   0.14901741E+00
   0.77850   0.12127931E+00
   0.77950   0.22407280E+00
   0.78050   0.48467952E+00
   0.78150   0.73351210E+00
   0.78250   0.74753863E+00
   0.78350   0.89744550E+00
   0.78450   0.62775266E+00
   0.78550   0.53767645E+00
   0.78650   0.49020770E+00
   0.78750   0.45408723E+00
   0.78850   0.25744843E+00
   0.78950   0.29029736E+00
   0.79050   0.33948106E+00
   0.79150   0.28130525E+00
   0.79250   0.27345496E+00
   0.79350   0.34634700E+00
   0.79450   0.34882030E+00
   0.79550   0.38849556E+00
   0.79650   0.41028303E+00
   0.79750   0.49871513E+00
   0.79850   0.41541541E+00
   0.79950   0.41788310E+00
   0.80050   0.47668791E+00
   0.80150   0.62776327E+00
   0.80250   0.66948980E+00
   0.80350   0.57066125E+00
   0.80450   0.39472941E+00
   0.80550   0.33353141E+00
   0.80650   0.34060931E+00
   0.80750   0.36115980E+00
   0.80850   0.38864464E+00
   0.80950   0.40352866E+00
   0.81050   0.33797297E+00
   0.81150   0.27371120E+00
   0.81250   0.32031417E+00
   0.81350   0.44145778E+00
   0.81450   0.42826310E+00
   0.81550   0.40845463E+00
   0.81650   0.38796100E+00
   0.81750   0.41217139E+00
   0.81850   0.53787708E+00
   0.81950   0.60015041E+00
   0.82050   0.52180076E+00
   0.82150   0.56341797E+00
   0.82250   0.60097754E+00
   0.82350   0.60168278E+00
   0.82450   0.71790826E+00
   0.82550   0.78345007E+00
   0.82650   0.77052939E+00
   0.82750   0.77648109E+00
   0.82850   0.74678755E+00
   0.82950   0.47455615E+00
   0.83050   0.31210589E+00
   0.83150   0.35376272E+00
   0.83250   0.22082943E+00
   0.83350   0.16776001E+00
   0.83450   0.20431773E+00
   0.83550   0.26060832E+00
   0.83650   0.20003721E+00
   0.83750   0.12715058E+00
   0.83850   0.86454540E-01
   0.83950   0.58415741E-01
   0.84050   0.31492934E-01
   0.84150   0.13274880E-01
   0.84250   0.52248645E-02
   0.84350   0.23827963E-02
   0.84450   0.14138371E-02
   0.84550   0.10439081E-02
   0.84650   0.87765936E-03
   0.84750   0.78875042E-03
   0.84850   0.72950817E-03
   0.84950   0.67730690E-03
   0.85050   0.61945408E-03
   0.85150   0.55401737E-03
   0.85250   0.48944633E-03
   0.85350   0.43717664E-03
   0.85450   0.40322641E-03
   0.85550   0.38501993E-03
   0.85650   0.37367709E-03
   0.85750   0.35972914E-03
   0.85850   0.33868282E-03
   0.85950   0.31223879E-03
   0.86050   0.28517997E-03
   0.86150   0.26166378E-03
   0.86250   0.24338042E-03
   0.86350   0.22966354E-03
   0.86450   0.21878215E-03
   0.86550   0.20943413E-03
   0.86650   0.20162515E-03
   0.86750   0.19681275E-03
   0.86850   0.19777176E-03
   0.86950   0.20868385E-03
   0.87050   0.23591632E-03
   0.87150   0.29047419E-03
   0.87250   0.39506415E-03
   0.87350   0.60534244E-03
   0.87450   0.10816315E-02
   0.87550   0.23753298E-02
   0.87650   0.67337886E-02
   0.87750   0.21024246E-01
   0.87850   0.36864605E-01
   0.87950   0.50540570E-01
   0.88050   0.91004215E-01
   0.88150   0.14085381E+00
   0.88250   0.12122340E+00
   0.88350   0.30971928E-01
   0.88450   0.77062007E-02
   0.88550   0.27339796E-02
   0.88650   0.12515795E-02
   0.88750   0.67798118E-03
   0.88850   0.41174627E-03
   0.88950   0.27111152E-03
   0.89050   0.18947483E-03
   0.89150   0.13864253E-03
   0.89250   0.10527576E-03
   0.89350   0.82482082E-04
   0.89450   0.66434499E-04
   0.89550   0.54875614E-04
   0.89650   0.46403071E-04
   0.89750   0.40108014E-04
   0.89850   0.35389134E-04
   0.89950   0.31877829E-04
   0.90050   0.29495537E-04
   0.90150   0.28142553E-04
   0.90250   0.26887679E-04
   0.90350   0.25485524E-04
   0.90450   0.24093422E-04
   0.90550   0.22787279E-04
   0.90650   0.21599953E-04
   0.90750   0.20549282E-04
   0.90850   0.19646115E-04
   0.90950   0.18896970E-04
   0.91050   0.18304770E-04
   0.91150   0.17868906E-04
   0.91250   0.17585166E-04
   0.91350   0.17445816E-04
   0.91450   0.17439908E-04
   0.91550   0.17553813E-04
   0.91650   0.17771952E-04
   0.91750   0.18077651E-04
   0.91850   0.18454037E-04
   0.91950   0.18884924E-04
   0.92050   0.19355655E-04
   0.92150   0.19853804E-04
   0.92250   0.20369751E-04
   0.92350   0.20897100E-04
   0.92450   0.21432908E-04
   0.92550   0.21977834E-04
   0.92650   0.22536180E-04
   0.92750   0.23115963E-04
   0.92850   0.23729081E-04
   0.92950   0.24391593E-04
   0.93050   0.25124160E-04
   0.93150   0.25952571E-04
   0.93250   0.26908221E-04
   0.93350   0.28028398E-04
   0.93450   0.29356155E-04
   0.93550   0.30939638E-04
   0.93650   0.32830765E-04
   0.93750   0.35083343E-04
   0.93850   0.37750728E-04
   0.93950   0.40883388E-04
   0.94050   0.44526623E-04
   0.94150   0.48718426E-04
   0.94250   0.53486106E-04
   0.94350   0.58833029E-04
   0.94450   0.64669686E-04
   0.94550   0.70789130E-04
   0.94650   0.77339137E-04
   0.94750   0.84467945E-04
   0.94850   0.92225360E-04
   0.94950   0.10067660E-03
   0.95050   0.10992037E-03
   0.95150   0.12008924E-03
   0.95250   0.13134342E-03
   0.95350   0.14385868E-03
   0.95450   0.15781287E-03
   0.95550   0.17339166E-03
   0.95650   0.19074585E-03
   0.95750   0.20986427E-03
   0.95850   0.23070136E-03
   0.95950   0.25315973E-03
   0.96050   0.27706329E-03
   0.96150   0.30215818E-03
   0.96250   0.32812663E-03
   0.96350   0.35461763E-03
   0.96450   0.38130034E-03
   0.96550   0.40794277E-03
   0.96650   0.43450983E-03
   0.96750   0.46126149E-03
   0.96850   0.48881577E-03
   0.96950   0.51813049E-03
   0.97050   0.55038166E-03
   0.97150   0.58681483E-03
   0.97250   0.62882912E-03
   0.97350   0.67867502E-03
   0.97450   0.74092520E-03
   0.97550   0.82456705E-03
   0.97650   0.94735355E-03
   0.97750   0.11314224E-02
   0.97850   0.13761076E-02
   0.97950   0.16102818E-02
   0.98050   0.17217863E-02
   0.98150   0.17234717E-02
   0.98250   0.17397869E-02
   0.98350   0.18694323E-02
   0.98450   0.21833121E-02
   0.98550   0.27849851E-02
   0.98650   0.38837022E-02
   0.98750   0.59127025E-02
   0.98850   0.97047566E-02
   0.98950   0.16589018E-01
   0.99050   0.28391544E-01
   0.99150   0.48815474E-01
   0.99250   0.11558422E+00
   0.99350   0.26769021E+00
   0.99450   0.44001460E+00
   0.99550   0.57457745E+00
   0.99650   0.68353713E+00
   0.99750   0.63504976E+00
   0.99850   0.62476683E+00
   0.99950   0.60365564E+00
