# Transmission, k-averaged
# Date: 2021-05-13
#   E [eV]           T [G0]
   0.00050   0.42815238E+00
   0.00150   0.25507486E+00
   0.00250   0.13061547E+00
   0.00350   0.54174025E-01
   0.00450   0.10087998E-01
   0.00550   0.64590596E-01
   0.00650   0.61917333E-02
   0.00750   0.86303689E-02
   0.00850   0.25200596E-01
   0.00950   0.34774661E-02
   0.01050   0.45317938E-02
   0.01150   0.65006666E-01
   0.01250   0.48869471E-02
   0.01350   0.21813812E-02
   0.01450   0.32132026E-02
   0.01550   0.28403461E-01
   0.01650   0.77962293E-02
   0.01750   0.19963691E-02
   0.01850   0.15670363E-02
   0.01950   0.27776959E-02
   0.02050   0.21788958E-01
   0.02150   0.10854228E-01
   0.02250   0.24177898E-02
   0.02350   0.16336672E-02
   0.02450   0.20694849E-02
   0.02550   0.51648943E-02
   0.02650   0.48084725E-01
   0.02750   0.16431088E-01
   0.02850   0.49821162E-02
   0.02950   0.35414032E-02
   0.03050   0.40920344E-02
   0.03150   0.73744990E-02
   0.03250   0.23817996E-01
   0.03350   0.72159842E-01
   0.03450   0.22851555E-01
   0.03550   0.11115246E-01
   0.03650   0.88014947E-02
   0.03750   0.98372595E-02
   0.03850   0.14954072E-01
   0.03950   0.30432740E-01
   0.04050   0.57676267E-01
   0.04150   0.42417534E-01
   0.04250   0.23777246E-01
   0.04350   0.17051104E-01
   0.04450   0.15675161E-01
   0.04550   0.16836723E-01
   0.04650   0.18714197E-01
   0.04750   0.19759370E-01
   0.04850   0.18714532E-01
   0.04950   0.16181998E-01
   0.05050   0.13595087E-01
   0.05150   0.11656056E-01
   0.05250   0.10417226E-01
   0.05350   0.97271018E-02
   0.05450   0.94155548E-02
   0.05550   0.93246400E-02
   0.05650   0.93047507E-02
   0.05750   0.92255119E-02
   0.05850   0.90074381E-02
   0.05950   0.86459490E-02
   0.06050   0.81977807E-02
   0.06150   0.77391732E-02
   0.06250   0.73302109E-02
   0.06350   0.70022014E-02
   0.06450   0.67612315E-02
   0.06550   0.65963473E-02
   0.06650   0.64866943E-02
   0.06750   0.64070579E-02
   0.06850   0.63328757E-02
   0.06950   0.62450948E-02
   0.07050   0.61339084E-02
   0.07150   0.59998445E-02
   0.07250   0.58516595E-02
   0.07350   0.57021761E-02
   0.07450   0.55640214E-02
   0.07550   0.54467088E-02
   0.07650   0.53553884E-02
   0.07750   0.52908617E-02
   0.07850   0.52503017E-02
   0.07950   0.52283229E-02
   0.08050   0.52182381E-02
   0.08150   0.52134334E-02
   0.08250   0.52087037E-02
   0.08350   0.52013216E-02
   0.08450   0.51915683E-02
   0.08550   0.51826057E-02
   0.08650   0.51797843E-02
   0.08750   0.51896013E-02
   0.08850   0.52184360E-02
   0.08950   0.52704103E-02
   0.09050   0.53398046E-02
   0.09150   0.53696837E-02
   0.09250   0.51601883E-02
   0.09350   0.47714161E-02
   0.09450   0.44089286E-02
   0.09550   0.40961783E-02
   0.09650   0.38240631E-02
   0.09750   0.35843328E-02
   0.09850   0.33714077E-02
   0.09950   0.31814449E-02
   0.10050   0.30115393E-02
   0.10150   0.28592511E-02
   0.10250   0.27223688E-02
   0.10350   0.25988210E-02
   0.10450   0.24866657E-02
   0.10550   0.23841239E-02
   0.10650   0.22896212E-02
   0.10750   0.22018261E-02
   0.10850   0.21196713E-02
   0.10950   0.20423543E-02
   0.11050   0.19693139E-02
   0.11150   0.19001930E-02
   0.11250   0.18347838E-02
   0.11350   0.17729743E-02
   0.11450   0.17146952E-02
   0.11550   0.16598790E-02
   0.11650   0.16084292E-02
   0.11750   0.15602063E-02
   0.11850   0.15150232E-02
   0.11950   0.14726529E-02
   0.12050   0.14328413E-02
   0.12150   0.13953252E-02
   0.12250   0.13598491E-02
   0.12350   0.13261818E-02
   0.12450   0.12941281E-02
   0.12550   0.12635359E-02
   0.12650   0.12342978E-02
   0.12750   0.12063475E-02
   0.12850   0.11796523E-02
   0.12950   0.11542031E-02
   0.13050   0.11300026E-02
   0.13150   0.11070556E-02
   0.13250   0.10853597E-02
   0.13350   0.10648995E-02
   0.13450   0.10456432E-02
   0.13550   0.10275431E-02
   0.13650   0.10105373E-02
   0.13750   0.99455426E-03
   0.13850   0.97951875E-03
   0.13950   0.96535729E-03
   0.14050   0.95200387E-03
   0.14150   0.93940424E-03
   0.14250   0.92751923E-03
   0.14350   0.91632543E-03
   0.14450   0.90581510E-03
   0.14550   0.89599343E-03
   0.14650   0.88687555E-03
   0.14750   0.87848224E-03
   0.14850   0.87083544E-03
   0.14950   0.86395489E-03
   0.15050   0.85785449E-03
   0.15150   0.85254054E-03
   0.15250   0.84801094E-03
   0.15350   0.84425556E-03
   0.15450   0.84125769E-03
   0.15550   0.83899655E-03
   0.15650   0.83744986E-03
   0.15750   0.83659717E-03
   0.15850   0.83642226E-03
   0.15950   0.83691534E-03
   0.16050   0.83807390E-03
   0.16150   0.83990255E-03
   0.16250   0.84241148E-03
   0.16350   0.84561278E-03
   0.16450   0.84951619E-03
   0.16550   0.85412181E-03
   0.16650   0.85941149E-03
   0.16750   0.86533610E-03
   0.16850   0.87179634E-03
   0.16950   0.87860954E-03
   0.17050   0.88544562E-03
   0.17150   0.89168391E-03
   0.17250   0.89604576E-03
   0.17350   0.89547562E-03
   0.17450   0.88101969E-03
   0.17550   0.82588859E-03
   0.17650   0.72684966E-03
   0.17750   0.64232590E-03
   0.17850   0.57907635E-03
   0.17950   0.52989507E-03
   0.18050   0.49005548E-03
   0.18150   0.45675426E-03
   0.18250   0.42824473E-03
   0.18350   0.40337848E-03
   0.18450   0.38136702E-03
   0.18550   0.36165069E-03
   0.18650   0.34382177E-03
   0.18750   0.32757723E-03
   0.18850   0.31268812E-03
   0.18950   0.29897870E-03
   0.19050   0.28631222E-03
   0.19150   0.27458061E-03
   0.19250   0.26369700E-03
   0.19350   0.25359032E-03
   0.19450   0.24420119E-03
   0.19550   0.23547900E-03
   0.19650   0.22737980E-03
   0.19750   0.21986457E-03
   0.19850   0.21289825E-03
   0.19950   0.20644876E-03
   0.20050   0.20048661E-03
   0.20150   0.19498433E-03
   0.20250   0.18991629E-03
   0.20350   0.18525853E-03
   0.20450   0.18098859E-03
   0.20550   0.17708549E-03
   0.20650   0.17352967E-03
   0.20750   0.17030293E-03
   0.20850   0.16738848E-03
   0.20950   0.16477084E-03
   0.21050   0.16243581E-03
   0.21150   0.16037034E-03
   0.21250   0.15856235E-03
   0.21350   0.15700058E-03
   0.21450   0.15567474E-03
   0.21550   0.15457862E-03
   0.21650   0.15373419E-03
   0.21750   0.15334929E-03
   0.21850   0.15381523E-03
   0.21950   0.15483153E-03
   0.22050   0.15618597E-03
   0.22150   0.15787175E-03
   0.22250   0.15992101E-03
   0.22350   0.16237779E-03
   0.22450   0.16529649E-03
   0.22550   0.16874478E-03
   0.22650   0.17280878E-03
   0.22750   0.17760071E-03
   0.22850   0.18327046E-03
   0.22950   0.19002368E-03
   0.23050   0.19815053E-03
   0.23150   0.20806846E-03
   0.23250   0.22035469E-03
   0.23350   0.23544072E-03
   0.23450   0.24990653E-03
   0.23550   0.25052135E-03
   0.23650   0.24166651E-03
   0.23750   0.23171068E-03
   0.23850   0.22240278E-03
   0.23950   0.21397060E-03
   0.24050   0.20636692E-03
   0.24150   0.19949937E-03
   0.24250   0.19327874E-03
   0.24350   0.18762852E-03
   0.24450   0.18248508E-03
   0.24550   0.17779593E-03
   0.24650   0.17351771E-03
   0.24750   0.16961443E-03
   0.24850   0.16605614E-03
   0.24950   0.16281771E-03
   0.25050   0.15987801E-03
   0.25150   0.15721914E-03
   0.25250   0.15482590E-03
   0.25350   0.15268536E-03
   0.25450   0.15078636E-03
   0.25550   0.14911933E-03
   0.25650   0.14767591E-03
   0.25750   0.14644883E-03
   0.25850   0.14543162E-03
   0.25950   0.14461852E-03
   0.26050   0.14400423E-03
   0.26150   0.14358388E-03
   0.26250   0.14335281E-03
   0.26350   0.14330649E-03
   0.26450   0.14344044E-03
   0.26550   0.14375009E-03
   0.26650   0.14423070E-03
   0.26750   0.14487731E-03
   0.26850   0.14568474E-03
   0.26950   0.14664748E-03
   0.27050   0.14775978E-03
   0.27150   0.14901572E-03
   0.27250   0.15040915E-03
   0.27350   0.15193403E-03
   0.27450   0.15358446E-03
   0.27550   0.15535492E-03
   0.27650   0.15724059E-03
   0.27750   0.15923758E-03
   0.27850   0.16134333E-03
   0.27950   0.16355692E-03
   0.28050   0.16587957E-03
   0.28150   0.16831499E-03
   0.28250   0.17086994E-03
   0.28350   0.17355470E-03
   0.28450   0.17638365E-03
   0.28550   0.17937599E-03
   0.28650   0.18255647E-03
   0.28750   0.18595638E-03
   0.28850   0.18961469E-03
   0.28950   0.19357952E-03
   0.29050   0.19790995E-03
   0.29150   0.20267822E-03
   0.29250   0.20797190E-03
   0.29350   0.21389514E-03
   0.29450   0.22056435E-03
   0.29550   0.22808195E-03
   0.29650   0.23641638E-03
   0.29750   0.24481915E-03
   0.29850   0.24874081E-03
   0.29950   0.23685773E-03
   0.30050   0.21827148E-03
   0.30150   0.20344253E-03
   0.30250   0.19270052E-03
   0.30350   0.18533003E-03
   0.30450   0.18089857E-03
   0.30550   0.17928783E-03
   0.30650   0.18067674E-03
   0.30750   0.18558881E-03
   0.30850   0.19503704E-03
   0.30950   0.21083657E-03
   0.31050   0.23625040E-03
   0.31150   0.27734562E-03
   0.31250   0.34584783E-03
   0.31350   0.46428179E-03
   0.31450   0.66524546E-03
   0.31550   0.90770109E-03
   0.31650   0.85345679E-03
   0.31750   0.50054869E-03
   0.31850   0.26551192E-03
   0.31950   0.15432078E-03
   0.32050   0.10056427E-03
   0.32150   0.72394716E-04
   0.32250   0.56452831E-04
   0.32350   0.46831581E-04
   0.32450   0.40712268E-04
   0.32550   0.36651527E-04
   0.32650   0.33864413E-04
   0.32750   0.31902102E-04
   0.32850   0.30497145E-04
   0.32950   0.29484765E-04
   0.33050   0.28760800E-04
   0.33150   0.28258293E-04
   0.33250   0.27933960E-04
   0.33350   0.27760181E-04
   0.33450   0.27720167E-04
   0.33550   0.27805027E-04
   0.33650   0.28012053E-04
   0.33750   0.28343815E-04
   0.33850   0.28807835E-04
   0.33950   0.29416778E-04
   0.34050   0.30189116E-04
   0.34150   0.31150335E-04
   0.34250   0.32334839E-04
   0.34350   0.33788776E-04
   0.34450   0.35574227E-04
   0.34550   0.37775422E-04
   0.34650   0.40508046E-04
   0.34750   0.43933462E-04
   0.34850   0.48280879E-04
   0.34950   0.53882846E-04
   0.35050   0.61233586E-04
   0.35150   0.71088172E-04
   0.35250   0.84637031E-04
   0.35350   0.10382339E-03
   0.35450   0.13193332E-03
   0.35550   0.17470664E-03
   0.35650   0.15835206E-03
   0.35750   0.25372193E-03
   0.35850   0.43482109E-03
   0.35950   0.65216230E-03
   0.36050   0.85825927E-03
   0.36150   0.92186226E-03
   0.36250   0.85014466E-03
   0.36350   0.76261297E-03
   0.36450   0.70493756E-03
   0.36550   0.68092300E-03
   0.36650   0.70539344E-03
   0.36750   0.78676606E-03
   0.36850   0.91874320E-03
   0.36950   0.10825974E-02
   0.37050   0.12558817E-02
   0.37150   0.14357100E-02
   0.37250   0.70538308E-03
   0.37350   0.10453392E-02
   0.37450   0.21129644E-02
   0.37550   0.39771763E-02
   0.37650   0.40193941E-02
   0.37750   0.59135058E-02
   0.37850   0.75092949E-02
   0.37950   0.77880579E-02
   0.38050   0.79255477E-02
   0.38150   0.81552649E-02
   0.38250   0.69453535E-02
   0.38350   0.58228164E-02
   0.38450   0.53664362E-02
   0.38550   0.52022231E-02
   0.38650   0.49384888E-02
   0.38750   0.45556705E-02
   0.38850   0.42324802E-02
   0.38950   0.40518944E-02
   0.39050   0.39635249E-02
   0.39150   0.38619062E-02
   0.39250   0.36888618E-02
   0.39350   0.34718337E-02
   0.39450   0.32716300E-02
   0.39550   0.31259193E-02
   0.39650   0.30347877E-02
   0.39750   0.29709938E-02
   0.39850   0.28997010E-02
   0.39950   0.28006178E-02
   0.40050   0.26785070E-02
   0.40150   0.25541435E-02
   0.40250   0.24475511E-02
   0.40350   0.23680674E-02
   0.40450   0.23133422E-02
   0.40550   0.22731361E-02
   0.40650   0.22352338E-02
   0.40750   0.21918055E-02
   0.40850   0.21433856E-02
   0.40950   0.20981058E-02
   0.41050   0.20672586E-02
   0.41150   0.20602937E-02
   0.41250   0.20792834E-02
   0.41350   0.20988157E-02
   0.41450   0.19942569E-02
   0.41550   0.17435297E-02
   0.41650   0.15119625E-02
   0.41750   0.13288350E-02
   0.41850   0.11859171E-02
   0.41950   0.10739937E-02
   0.42050   0.98560273E-03
   0.42150   0.91476203E-03
   0.42250   0.85667911E-03
   0.42350   0.80759107E-03
   0.42450   0.76465856E-03
   0.42550   0.72584028E-03
   0.42650   0.68971410E-03
   0.42750   0.65526413E-03
   0.42850   0.62169373E-03
   0.42950   0.58832747E-03
   0.43050   0.55462174E-03
   0.43150   0.52026013E-03
   0.43250   0.48527677E-03
   0.43350   0.45015465E-03
   0.43450   0.41587598E-03
   0.43550   0.38396401E-03
   0.43650   0.35664969E-03
   0.43750   0.33745347E-03
   0.43850   0.33285134E-03
   0.43950   0.35677379E-03
   0.44050   0.44225829E-03
   0.44150   0.65983657E-03
   0.44250   0.10196872E-02
   0.44350   0.10910800E-02
   0.44450   0.81755267E-03
   0.44550   0.59180660E-03
   0.44650   0.46180331E-03
   0.44750   0.38886839E-03
   0.44850   0.34789860E-03
   0.44950   0.32610205E-03
   0.45050   0.31678868E-03
   0.45150   0.31618788E-03
   0.45250   0.32198383E-03
   0.45350   0.33262165E-03
   0.45450   0.34696190E-03
   0.45550   0.36410088E-03
   0.45650   0.38327611E-03
   0.45750   0.40381754E-03
   0.45850   0.42512463E-03
   0.45950   0.44665736E-03
   0.46050   0.46793406E-03
   0.46150   0.48853253E-03
   0.46250   0.50809159E-03
   0.46350   0.52631251E-03
   0.46450   0.54295949E-03
   0.46550   0.55785826E-03
   0.46650   0.57089422E-03
   0.46750   0.58200757E-03
   0.46850   0.59118820E-03
   0.46950   0.59846829E-03
   0.47050   0.60391484E-03
   0.47150   0.60762139E-03
   0.47250   0.60970028E-03
   0.47350   0.61027618E-03
   0.47450   0.60948031E-03
   0.47550   0.60744630E-03
   0.47650   0.60430786E-03
   0.47750   0.60019677E-03
   0.47850   0.59524254E-03
   0.47950   0.58957189E-03
   0.48050   0.58330823E-03
   0.48150   0.57657092E-03
   0.48250   0.56947401E-03
   0.48350   0.56212500E-03
   0.48450   0.55462285E-03
   0.48550   0.54705673E-03
   0.48650   0.53950492E-03
   0.48750   0.53203444E-03
   0.48850   0.52470097E-03
   0.48950   0.51755004E-03
   0.49050   0.51061792E-03
   0.49150   0.50393317E-03
   0.49250   0.49751776E-03
   0.49350   0.49138704E-03
   0.49450   0.48555020E-03
   0.49550   0.48001326E-03
   0.49650   0.47481246E-03
   0.49750   0.47027695E-03
   0.49850   0.46843165E-03
   0.49950   0.47107361E-03
   0.50050   0.47566413E-03
   0.50150   0.48130663E-03
   0.50250   0.48809868E-03
   0.50350   0.49638131E-03
   0.50450   0.50676189E-03
   0.50550   0.52052340E-03
   0.50650   0.54112740E-03
   0.50750   0.58095146E-03
   0.50850   0.68508135E-03
   0.50950   0.66527847E-03
   0.51050   0.76615548E-03
   0.51150   0.16945248E-02
   0.51250   0.18254543E-02
   0.51350   0.13975446E-02
   0.51450   0.12883160E-02
   0.51550   0.13118945E-02
   0.51650   0.14168395E-02
   0.51750   0.16157683E-02
   0.51850   0.21175586E-02
   0.51950   0.32738868E-01
   0.52050   0.28112824E-02
   0.52150   0.31887209E-02
   0.52250   0.36582437E-02
   0.52350   0.29319276E-02
   0.52450   0.74164905E-02
   0.52550   0.99817347E-02
   0.52650   0.93818614E-02
   0.52750   0.95433695E-02
   0.52850   0.11071868E-01
   0.52950   0.93163084E-02
   0.53050   0.90087699E-02
   0.53150   0.92303045E-02
   0.53250   0.77404701E-02
   0.53350   0.59719430E-02
   0.53450   0.47981301E-02
   0.53550   0.39728004E-02
   0.53650   0.33229059E-02
   0.53750   0.28071897E-02
   0.53850   0.24147609E-02
   0.53950   0.21393544E-02
   0.54050   0.19676262E-02
   0.54150   0.18716301E-02
   0.54250   0.18181312E-02
   0.54350   0.17849896E-02
   0.54450   0.17674277E-02
   0.54550   0.17699988E-02
   0.54650   0.17952361E-02
   0.54750   0.18384400E-02
   0.54850   0.18892973E-02
   0.54950   0.19370090E-02
   0.55050   0.19751287E-02
   0.55150   0.20031908E-02
   0.55250   0.20247155E-02
   0.55350   0.20437238E-02
   0.55450   0.20622322E-02
   0.55550   0.20797080E-02
   0.55650   0.20940530E-02
   0.55750   0.21031343E-02
   0.55850   0.21059676E-02
   0.55950   0.21030605E-02
   0.56050   0.20959743E-02
   0.56150   0.20865237E-02
   0.56250   0.20760756E-02
   0.56350   0.20652034E-02
   0.56450   0.20537300E-02
   0.56550   0.20410449E-02
   0.56650   0.20265181E-02
   0.56750   0.20098391E-02
   0.56850   0.19911590E-02
   0.56950   0.19710187E-02
   0.57050   0.19501349E-02
   0.57150   0.19291564E-02
   0.57250   0.19084881E-02
   0.57350   0.18882211E-02
   0.57450   0.18681665E-02
   0.57550   0.18479602E-02
   0.57650   0.18271971E-02
   0.57750   0.18055555E-02
   0.57850   0.17828796E-02
   0.57950   0.17592034E-02
   0.58050   0.17347193E-02
   0.58150   0.17097084E-02
   0.58250   0.16844611E-02
   0.58350   0.16592103E-02
   0.58450   0.16340931E-02
   0.58550   0.16091457E-02
   0.58650   0.15843224E-02
   0.58750   0.15595328E-02
   0.58850   0.15346812E-02
   0.58950   0.15097011E-02
   0.59050   0.14845782E-02
   0.59150   0.14593567E-02
   0.59250   0.14341335E-02
   0.59350   0.14090419E-02
   0.59450   0.13842331E-02
   0.59550   0.13598573E-02
   0.59650   0.13360521E-02
   0.59750   0.13129367E-02
   0.59850   0.12906125E-02
   0.59950   0.12691688E-02
   0.60050   0.12486882E-02
   0.60150   0.12292538E-02
   0.60250   0.12109526E-02
   0.60350   0.11938781E-02
   0.60450   0.11781307E-02
   0.60550   0.11638185E-02
   0.60650   0.11510596E-02
   0.60750   0.11399877E-02
   0.60850   0.11307610E-02
   0.60950   0.11235769E-02
   0.61050   0.11186919E-02
   0.61150   0.11164463E-02
   0.61250   0.11172972E-02
   0.61350   0.11218571E-02
   0.61450   0.11309346E-02
   0.61550   0.11455263E-02
   0.61650   0.11664331E-02
   0.61750   0.11914354E-02
   0.61850   0.12104079E-02
   0.61950   0.12431327E-02
   0.62050   0.13485869E-02
   0.62150   0.17659762E-02
   0.62250   0.23915388E-02
   0.62350   0.19898952E-02
   0.62450   0.23326632E-02
   0.62550   0.17431674E-02
   0.62650   0.15534455E-02
   0.62750   0.16051544E-02
   0.62850   0.17413254E-02
   0.62950   0.19507095E-02
   0.63050   0.22708336E-02
   0.63150   0.28263410E-02
   0.63250   0.40815016E-02
   0.63350   0.63638296E-02
   0.63450   0.90894345E-02
   0.63550   0.15084498E-01
   0.63650   0.13927997E-01
   0.63750   0.10690723E-01
   0.63850   0.83008502E-02
   0.63950   0.67882924E-02
   0.64050   0.66590398E-02
   0.64150   0.68972446E-02
   0.64250   0.68292166E-02
   0.64350   0.70958724E-02
   0.64450   0.78225285E-02
   0.64550   0.71847099E-02
   0.64650   0.55456436E-02
   0.64750   0.45690620E-02
   0.64850   0.43181232E-02
   0.64950   0.45030625E-02
   0.65050   0.47629452E-02
   0.65150   0.47009005E-02
   0.65250   0.43368274E-02
   0.65350   0.40052328E-02
   0.65450   0.38616948E-02
   0.65550   0.38769345E-02
   0.65650   0.39544324E-02
   0.65750   0.39862795E-02
   0.65850   0.39149052E-02
   0.65950   0.37740727E-02
   0.66050   0.36417653E-02
   0.66150   0.35663182E-02
   0.66250   0.35460168E-02
   0.66350   0.35498461E-02
   0.66450   0.35440591E-02
   0.66550   0.35094959E-02
   0.66650   0.34470686E-02
   0.66750   0.33729386E-02
   0.66850   0.33076457E-02
   0.66950   0.32656002E-02
   0.67050   0.32499142E-02
   0.67150   0.32535950E-02
   0.67250   0.32649576E-02
   0.67350   0.32737046E-02
   0.67450   0.32746075E-02
   0.67550   0.32677941E-02
   0.67650   0.32567051E-02
   0.67750   0.32454329E-02
   0.67850   0.32367455E-02
   0.67950   0.32314199E-02
   0.68050   0.32288458E-02
   0.68150   0.32282388E-02
   0.68250   0.32295724E-02
   0.68350   0.32336109E-02
   0.68450   0.32407846E-02
   0.68550   0.32479269E-02
   0.68650   0.32366449E-02
   0.68750   0.31571849E-02
   0.68850   0.30454320E-02
   0.68950   0.29612663E-02
   0.69050   0.29017327E-02
   0.69150   0.28588115E-02
   0.69250   0.28273887E-02
   0.69350   0.28043161E-02
   0.69450   0.27875644E-02
   0.69550   0.27757501E-02
   0.69650   0.27678842E-02
   0.69750   0.27632464E-02
   0.69850   0.27613218E-02
   0.69950   0.27617589E-02
   0.70050   0.27643235E-02
   0.70150   0.27688283E-02
   0.70250   0.27749897E-02
   0.70350   0.27819981E-02
   0.70450   0.27866333E-02
   0.70550   0.27782805E-02
   0.70650   0.27617905E-02
   0.70750   0.27689270E-02
   0.70850   0.29091765E-02
   0.70950   0.37703880E-02
   0.71050   0.35997543E-02
   0.71150   0.32391991E-02
   0.71250   0.31132326E-02
   0.71350   0.30627118E-02
   0.71450   0.30419521E-02
   0.71550   0.30359691E-02
   0.71650   0.30394690E-02
   0.71750   0.30522889E-02
   0.71850   0.30814381E-02
   0.71950   0.31546461E-02
   0.72050   0.33733174E-02
   0.72150   0.40105786E-02
   0.72250   0.48107440E-02
   0.72350   0.48356662E-02
   0.72450   0.47266949E-02
   0.72550   0.48269341E-02
   0.72650   0.52186339E-02
   0.72750   0.60759219E-02
   0.72850   0.77460073E-02
   0.72950   0.10819493E-01
   0.73050   0.17305799E-01
   0.73150   0.18980306E-01
   0.73250   0.13659315E-01
   0.73350   0.11896105E-01
   0.73450   0.12155509E-01
   0.73550   0.11390396E-01
   0.73650   0.10539541E-01
   0.73750   0.10913580E-01
   0.73850   0.11782497E-01
   0.73950   0.12400987E-01
   0.74050   0.12912266E-01
   0.74150   0.13830725E-01
   0.74250   0.15478472E-01
   0.74350   0.17743852E-01
   0.74450   0.19449698E-01
   0.74550   0.20057850E-01
   0.74650   0.20961927E-01
   0.74750   0.21287557E-01
   0.74850   0.19833868E-01
   0.74950   0.18390035E-01
   0.75050   0.18023485E-01
   0.75150   0.18630395E-01
   0.75250   0.19709002E-01
   0.75350   0.20465348E-01
   0.75450   0.20330906E-01
   0.75550   0.19570915E-01
   0.75650   0.18793613E-01
   0.75750   0.18319374E-01
   0.75850   0.18185006E-01
   0.75950   0.18320560E-01
   0.76050   0.18638682E-01
   0.76150   0.19053288E-01
   0.76250   0.19473616E-01
   0.76350   0.19808736E-01
   0.76450   0.19996945E-01
   0.76550   0.20031853E-01
   0.76650   0.19947557E-01
   0.76750   0.19779546E-01
   0.76850   0.19546861E-01
   0.76950   0.19263977E-01
   0.77050   0.18957339E-01
   0.77150   0.18668236E-01
   0.77250   0.18444087E-01
   0.77350   0.18327268E-01
   0.77450   0.18345850E-01
   0.77550   0.18506156E-01
   0.77650   0.18787760E-01
   0.77750   0.19144129E-01
   0.77850   0.19512545E-01
   0.77950   0.19832857E-01
   0.78050   0.20068130E-01
   0.78150   0.20216381E-01
   0.78250   0.20287693E-01
   0.78350   0.20099601E-01
   0.78450   0.18784948E-01
   0.78550   0.17962737E-01
   0.78650   0.18189900E-01
   0.78750   0.18406494E-01
   0.78850   0.18564710E-01
   0.78950   0.18708359E-01
   0.79050   0.18859930E-01
   0.79150   0.19025611E-01
   0.79250   0.19202076E-01
   0.79350   0.19381030E-01
   0.79450   0.19552900E-01
   0.79550   0.19710053E-01
   0.79650   0.19849265E-01
   0.79750   0.19973306E-01
   0.79850   0.20092046E-01
   0.79950   0.20223787E-01
   0.80050   0.20396581E-01
   0.80150   0.20644456E-01
   0.80250   0.20979254E-01
   0.80350   0.21311048E-01
   0.80450   0.21411544E-01
   0.80550   0.21163503E-01
   0.80650   0.20749187E-01
   0.80750   0.20396134E-01
   0.80850   0.20226467E-01
   0.80950   0.20322671E-01
   0.81050   0.20791683E-01
   0.81150   0.21750851E-01
   0.81250   0.23213390E-01
   0.81350   0.25034063E-01
   0.81450   0.27016353E-01
   0.81550   0.28238878E-01
   0.81650   0.27537875E-01
   0.81750   0.26224120E-01
   0.81850   0.25459023E-01
   0.81950   0.25296509E-01
   0.82050   0.25525402E-01
   0.82150   0.25779566E-01
   0.82250   0.25649117E-01
   0.82350   0.25418583E-01
   0.82450   0.25876515E-01
   0.82550   0.27699709E-01
   0.82650   0.31685110E-01
   0.82750   0.36566377E-01
   0.82850   0.37498191E-01
   0.82950   0.36837693E-01
   0.83050   0.37923813E-01
   0.83150   0.40539160E-01
   0.83250   0.44020653E-01
   0.83350   0.47151297E-01
   0.83450   0.48502360E-01
   0.83550   0.48227008E-01
   0.83650   0.47706384E-01
   0.83750   0.47799353E-01
   0.83850   0.48689030E-01
   0.83950   0.50323047E-01
   0.84050   0.52601837E-01
   0.84150   0.55363532E-01
   0.84250   0.58225680E-01
   0.84350   0.60222615E-01
   0.84450   0.60971763E-01
   0.84550   0.61252620E-01
   0.84650   0.61639830E-01
   0.84750   0.62469013E-01
   0.84850   0.63622341E-01
   0.84950   0.65210551E-01
   0.85050   0.67237549E-01
   0.85150   0.69576971E-01
   0.85250   0.72202884E-01
   0.85350   0.75132214E-01
   0.85450   0.78399286E-01
   0.85550   0.82039818E-01
   0.85650   0.86067520E-01
   0.85750   0.90437412E-01
   0.85850   0.94996206E-01
   0.85950   0.99436939E-01
   0.86050   0.10331195E+00
   0.86150   0.10618333E+00
   0.86250   0.10790264E+00
   0.86350   0.10880283E+00
   0.86450   0.10956170E+00
   0.86550   0.11083927E+00
   0.86650   0.11301523E+00
   0.86750   0.11615498E+00
   0.86850   0.12010591E+00
   0.86950   0.12461921E+00
   0.87050   0.12948248E+00
   0.87150   0.13467512E+00
   0.87250   0.13101999E+00
   0.87350   0.13253979E+00
   0.87450   0.13644093E+00
   0.87550   0.13752313E+00
   0.87650   0.13673802E+00
   0.87750   0.13437833E+00
   0.87850   0.13069768E+00
   0.87950   0.12585743E+00
   0.88050   0.11980557E+00
   0.88150   0.11309375E+00
   0.88250   0.10910736E+00
   0.88350   0.10960320E+00
   0.88450   0.11158414E+00
   0.88550   0.11371303E+00
   0.88650   0.11611201E+00
   0.88750   0.11896566E+00
   0.88850   0.12213641E+00
   0.88950   0.12487114E+00
   0.89050   0.12605394E+00
   0.89150   0.12570919E+00
   0.89250   0.12484223E+00
   0.89350   0.12392015E+00
   0.89450   0.12396278E+00
   0.89550   0.12601778E+00
   0.89650   0.12926620E+00
   0.89750   0.13212259E+00
   0.89850   0.13521993E+00
   0.89950   0.14055748E+00
   0.90050   0.15033917E+00
   0.90150   0.16376829E+00
   0.90250   0.16849087E+00
   0.90350   0.16579913E+00
   0.90450   0.16410470E+00
   0.90550   0.16440293E+00
   0.90650   0.16577737E+00
   0.90750   0.16778038E+00
   0.90850   0.17034312E+00
   0.90950   0.17331696E+00
   0.91050   0.17634863E+00
   0.91150   0.17913204E+00
   0.91250   0.18162382E+00
   0.91350   0.18397032E+00
   0.91450   0.18634969E+00
   0.91550   0.18925422E+00
   0.91650   0.19487146E+00
   0.91750   0.20202971E+00
   0.91850   0.20711440E+00
   0.91950   0.21167380E+00
   0.92050   0.21641183E+00
   0.92150   0.22145163E+00
   0.92250   0.22683321E+00
   0.92350   0.23258595E+00
   0.92450   0.23871455E+00
   0.92550   0.24518590E+00
   0.92650   0.25195017E+00
   0.92750   0.25900164E+00
   0.92850   0.26644638E+00
   0.92950   0.27448073E+00
   0.93050   0.28309232E+00
   0.93150   0.29163295E+00
   0.93250   0.29947203E+00
   0.93350   0.30694684E+00
   0.93450   0.31464505E+00
   0.93550   0.32280871E+00
   0.93650   0.33144960E+00
   0.93750   0.34051114E+00
   0.93850   0.34993356E+00
   0.93950   0.35967383E+00
   0.94050   0.36971202E+00
   0.94150   0.38005474E+00
   0.94250   0.39073795E+00
   0.94350   0.40182778E+00
   0.94450   0.41340348E+00
   0.94550   0.42544761E+00
   0.94650   0.43773514E+00
   0.94750   0.45007923E+00
   0.94850   0.46253738E+00
   0.94950   0.47548854E+00
   0.95050   0.48957187E+00
   0.95150   0.50549656E+00
   0.95250   0.52390885E+00
   0.95350   0.54552060E+00
   0.95450   0.57178444E+00
   0.95550   0.60636824E+00
   0.95650   0.64914089E+00
   0.95750   0.69417757E+00
   0.95850   0.74096340E+00
   0.95950   0.78934008E+00
   0.96050   0.83765399E+00
   0.96150   0.88324463E+00
   0.96250   0.92445368E+00
   0.96350   0.96233761E+00
   0.96450   0.99966621E+00
   0.96550   0.10384220E+01
   0.96650   0.10782379E+01
   0.96750   0.11157860E+01
   0.96850   0.11448195E+01
   0.96950   0.11587250E+01
   0.97050   0.11588300E+01
   0.97150   0.11625755E+01
   0.97250   0.11864643E+01
   0.97350   0.12223725E+01
   0.97450   0.12562935E+01
   0.97550   0.12856914E+01
   0.97650   0.13122419E+01
   0.97750   0.13370248E+01
   0.97850   0.13605864E+01
   0.97950   0.13826848E+01
   0.98050   0.14026504E+01
   0.98150   0.14212043E+01
   0.98250   0.14455880E+01
   0.98350   0.14852924E+01
   0.98450   0.15371921E+01
   0.98550   0.15938473E+01
   0.98650   0.16510849E+01
   0.98750   0.17070929E+01
   0.98850   0.17649314E+01
   0.98950   0.18293734E+01
   0.99050   0.18930413E+01
   0.99150   0.19561344E+01
   0.99250   0.20218499E+01
   0.99350   0.20913994E+01
   0.99450   0.21641243E+01
   0.99550   0.22377160E+01
   0.99650   0.23089540E+01
   0.99750   0.23742497E+01
   0.99850   0.24304016E+01
   0.99950   0.24766331E+01
