# Transmission, k-averaged
# Date: 2021-05-13
#   E [eV]           T [G0]
   0.00050   0.13867796E-01
   0.00150   0.12779326E-01
   0.00250   0.45672338E-02
   0.00350   0.10343976E-01
   0.00450   0.18493446E-02
   0.00550   0.66301087E-02
   0.00650   0.78124006E-03
   0.00750   0.36963094E-02
   0.00850   0.12567955E-02
   0.00950   0.37100932E-03
   0.01050   0.65187784E-03
   0.01150   0.82083307E-02
   0.01250   0.48003849E-03
   0.01350   0.22280429E-03
   0.01450   0.27939750E-03
   0.01550   0.10158222E-02
   0.01650   0.11688651E-02
   0.01750   0.25291243E-03
   0.01850   0.14376517E-03
   0.01950   0.14819240E-03
   0.02050   0.25780255E-03
   0.02150   0.58694073E-03
   0.02250   0.34429572E-03
   0.02350   0.14159404E-03
   0.02450   0.89129033E-04
   0.02550   0.79994395E-04
   0.02650   0.96238502E-04
   0.02750   0.14313341E-03
   0.02850   0.18684923E-03
   0.02950   0.13566624E-03
   0.03050   0.79677600E-04
   0.03150   0.54293178E-04
   0.03250   0.45191773E-04
   0.03350   0.45051009E-04
   0.03450   0.51685874E-04
   0.03550   0.62313884E-04
   0.03650   0.66080975E-04
   0.03750   0.54639790E-04
   0.03850   0.39616807E-04
   0.03950   0.29602084E-04
   0.04050   0.24404009E-04
   0.04150   0.22403927E-04
   0.04250   0.22412793E-04
   0.04350   0.22928594E-04
   0.04450   0.20622083E-04
   0.04550   0.13655465E-04
   0.04650   0.81762837E-05
   0.04750   0.52441337E-05
   0.04850   0.36210668E-05
   0.04950   0.26601424E-05
   0.05050   0.20546165E-05
   0.05150   0.16492398E-05
   0.05250   0.13602063E-05
   0.05350   0.11402891E-05
   0.05450   0.96283543E-06
   0.05550   0.81367352E-06
   0.05650   0.68613383E-06
   0.05750   0.57741795E-06
   0.05850   0.48607592E-06
   0.05950   0.41066696E-06
   0.06050   0.34937008E-06
   0.06150   0.30009457E-06
   0.06250   0.26071368E-06
   0.06350   0.22924372E-06
   0.06450   0.20393442E-06
   0.06550   0.18329726E-06
   0.06650   0.16610635E-06
   0.06750   0.15139145E-06
   0.06850   0.13842831E-06
   0.06950   0.12672102E-06
   0.07050   0.11597088E-06
   0.07150   0.10603254E-06
   0.07250   0.96864127E-07
   0.07350   0.88481031E-07
   0.07450   0.80919925E-07
   0.07550   0.74214981E-07
   0.07650   0.68384310E-07
   0.07750   0.63423251E-07
   0.07850   0.59301545E-07
   0.07950   0.55962715E-07
   0.08050   0.53325415E-07
   0.08150   0.51287273E-07
   0.08250   0.49731803E-07
   0.08350   0.48538212E-07
   0.08450   0.47592891E-07
   0.08550   0.46800690E-07
   0.08650   0.46093742E-07
   0.08750   0.45435797E-07
   0.08850   0.44818481E-07
   0.08950   0.44235573E-07
   0.09050   0.43560672E-07
   0.09150   0.41893809E-07
   0.09250   0.36499394E-07
   0.09350   0.29450648E-07
   0.09450   0.23910943E-07
   0.09550   0.19830861E-07
   0.09650   0.16806514E-07
   0.09750   0.14532870E-07
   0.09850   0.12791732E-07
   0.09950   0.11423301E-07
   0.10050   0.10308995E-07
   0.10150   0.93616102E-08
   0.10250   0.85191205E-08
   0.10350   0.77401614E-08
   0.10450   0.70002422E-08
   0.10550   0.62882863E-08
   0.10650   0.56033644E-08
   0.10750   0.49515836E-08
   0.10850   0.43431716E-08
   0.10950   0.37898440E-08
   0.11050   0.33025320E-08
   0.11150   0.28895881E-08
   0.11250   0.25555347E-08
   0.11350   0.23004083E-08
   0.11450   0.21196804E-08
   0.11550   0.20046940E-08
   0.11650   0.19435027E-08
   0.11750   0.19219792E-08
   0.11850   0.19250463E-08
   0.11950   0.19379052E-08
   0.12050   0.19471469E-08
   0.12150   0.19416757E-08
   0.12250   0.19133837E-08
   0.12350   0.18575519E-08
   0.12450   0.17729684E-08
   0.12550   0.16617698E-08
   0.12650   0.15290320E-08
   0.12750   0.13821497E-08
   0.12850   0.12300594E-08
   0.12950   0.10823721E-08
   0.13050   0.94848795E-09
   0.13150   0.83676588E-09
   0.13250   0.75381346E-09
   0.13350   0.70394873E-09
   0.13450   0.68886818E-09
   0.13550   0.70753658E-09
   0.13650   0.75629519E-09
   0.13750   0.82917073E-09
   0.13850   0.91835561E-09
   0.13950   0.10148216E-08
   0.14050   0.11090230E-08
   0.14150   0.11916447E-08
   0.14250   0.12543441E-08
   0.14350   0.12904404E-08
   0.14450   0.12955024E-08
   0.14550   0.12677905E-08
   0.14650   0.12085208E-08
   0.14750   0.11219191E-08
   0.14850   0.10150576E-08
   0.14950   0.89747165E-09
   0.15050   0.78057449E-09
   0.15150   0.67689626E-09
   0.15250   0.59918864E-09
   0.15350   0.55944033E-09
   0.15450   0.56785782E-09
   0.15550   0.63186778E-09
   0.15650   0.75520334E-09
   0.15750   0.93714025E-09
   0.15850   0.11719532E-08
   0.15950   0.14486694E-08
   0.16050   0.17511943E-08
   0.16150   0.20588875E-08
   0.16250   0.23476527E-08
   0.16350   0.25915905E-08
   0.16450   0.27652278E-08
   0.16550   0.28462992E-08
   0.16650   0.28189888E-08
   0.16750   0.26774787E-08
   0.16850   0.24295468E-08
   0.16950   0.20998718E-08
   0.17050   0.17325852E-08
   0.17150   0.13924780E-08
   0.17250   0.11640016E-08
   0.17350   0.11458363E-08
   0.17450   0.14288660E-08
   0.17550   0.19768613E-08
   0.17650   0.24843365E-08
   0.17750   0.29221550E-08
   0.17850   0.33326744E-08
   0.17950   0.36939942E-08
   0.18050   0.39794443E-08
   0.18150   0.41683612E-08
   0.18250   0.42483133E-08
   0.18350   0.42160178E-08
   0.18450   0.40774779E-08
   0.18550   0.38472483E-08
   0.18650   0.35468266E-08
   0.18750   0.32023559E-08
   0.18850   0.28419280E-08
   0.18950   0.24928644E-08
   0.19050   0.21793118E-08
   0.19150   0.19204203E-08
   0.19250   0.17292398E-08
   0.19350   0.16123566E-08
   0.19450   0.15701783E-08
   0.19550   0.15977164E-08
   0.19650   0.16856886E-08
   0.19750   0.18217675E-08
   0.19850   0.19918338E-08
   0.19950   0.21811297E-08
   0.20050   0.23752489E-08
   0.20150   0.25609319E-08
   0.20250   0.27266629E-08
   0.20350   0.28630809E-08
   0.20450   0.29632270E-08
   0.20550   0.30226530E-08
   0.20650   0.30394187E-08
   0.20750   0.30140028E-08
   0.20850   0.29491456E-08
   0.20950   0.28496436E-08
   0.21050   0.27221125E-08
   0.21150   0.25747373E-08
   0.21250   0.24170359E-08
   0.21350   0.22596958E-08
   0.21450   0.21146467E-08
   0.21550   0.19959649E-08
   0.21650   0.19243749E-08
   0.21750   0.19448172E-08
   0.21850   0.20901645E-08
   0.21950   0.22893312E-08
   0.22050   0.25053302E-08
   0.22150   0.27285123E-08
   0.22250   0.29529563E-08
   0.22350   0.31732601E-08
   0.22450   0.33842327E-08
   0.22550   0.35809782E-08
   0.22650   0.37590322E-08
   0.22750   0.39144838E-08
   0.22850   0.40440589E-08
   0.22950   0.41451429E-08
   0.23050   0.42156860E-08
   0.23150   0.42538653E-08
   0.23250   0.42570876E-08
   0.23350   0.42189208E-08
   0.23450   0.41240527E-08
   0.23550   0.39995238E-08
   0.23650   0.39263806E-08
   0.23750   0.39131764E-08
   0.23850   0.39481569E-08
   0.23950   0.40198840E-08
   0.24050   0.41177470E-08
   0.24150   0.42319792E-08
   0.24250   0.43540149E-08
   0.24350   0.44769854E-08
   0.24450   0.45962434E-08
   0.24550   0.47098494E-08
   0.24650   0.48190070E-08
   0.24750   0.49284581E-08
   0.24850   0.50468749E-08
   0.24950   0.51873372E-08
   0.25050   0.53680225E-08
   0.25150   0.56133223E-08
   0.25250   0.59557062E-08
   0.25350   0.64388193E-08
   0.25450   0.71225510E-08
   0.25550   0.80912059E-08
   0.25650   0.94664978E-08
   0.25750   0.11428022E-07
   0.25850   0.14245336E-07
   0.25950   0.18328087E-07
   0.26050   0.24304411E-07
   0.26150   0.33143888E-07
   0.26250   0.46351627E-07
   0.26350   0.66277252E-07
   0.26450   0.96613007E-07
   0.26550   0.14320919E-06
   0.26650   0.21543549E-06
   0.26750   0.32850735E-06
   0.26850   0.50757302E-06
   0.26950   0.79512614E-06
   0.27050   0.12649446E-05
   0.27150   0.20493912E-05
   0.27250   0.33953474E-05
   0.27350   0.57845891E-05
   0.27450   0.10206539E-04
   0.27550   0.18807144E-04
   0.27650   0.36480851E-04
   0.27750   0.74644144E-04
   0.27850   0.15786463E-03
   0.27950   0.31795399E-03
   0.28050   0.50466438E-03
   0.28150   0.50503726E-03
   0.28250   0.31328294E-03
   0.28350   0.15010219E-03
   0.28450   0.68400921E-04
   0.28550   0.32551488E-04
   0.28650   0.16607322E-04
   0.28750   0.91070679E-05
   0.28850   0.53517501E-05
   0.28950   0.33605393E-05
   0.29050   0.22518193E-05
   0.29150   0.16100653E-05
   0.29250   0.12289022E-05
   0.29350   0.10012069E-05
   0.29450   0.86952588E-06
   0.29550   0.80258900E-06
   0.29650   0.78373199E-06
   0.29750   0.80509221E-06
   0.29850   0.86513836E-06
   0.29950   0.96881729E-06
   0.30050   0.11231476E-05
   0.30150   0.13375625E-05
   0.30250   0.16284151E-05
   0.30350   0.20197476E-05
   0.30450   0.25457566E-05
   0.30550   0.32550765E-05
   0.30650   0.42174620E-05
   0.30750   0.55342211E-05
   0.30850   0.73547849E-05
   0.30950   0.99035879E-05
   0.31050   0.13524851E-04
   0.31150   0.18759431E-04
   0.31250   0.26481366E-04
   0.31350   0.38150527E-04
   0.31450   0.56302946E-04
   0.31550   0.85558553E-04
   0.31650   0.13484259E-03
   0.31750   0.22273196E-03
   0.31850   0.39187420E-03
   0.31950   0.75425935E-03
   0.32050   0.16657851E-02
   0.32150   0.46614124E-02
   0.32250   0.21741863E-01
   0.32350   0.21364602E+00
   0.32450   0.40869981E-01
   0.32550   0.17534874E-01
   0.32650   0.14259757E-01
   0.32750   0.18469865E-01
   0.32850   0.32644793E-01
   0.32950   0.49702026E-01
   0.33050   0.69227315E-01
   0.33150   0.47180451E-01
   0.33250   0.25761105E-01
   0.33350   0.19365342E-01
   0.33450   0.19147450E-01
   0.33550   0.23110412E-01
   0.33650   0.30141549E-01
   0.33750   0.37126053E-01
   0.33850   0.55352263E-02
   0.33950   0.54131467E-02
   0.34050   0.29299578E-02
   0.34150   0.28190014E-02
   0.34250   0.16432470E-02
   0.34350   0.74409670E-03
   0.34450   0.52990299E-03
   0.34550   0.39921259E-03
   0.34650   0.41982118E-03
   0.34750   0.63598203E-03
   0.34850   0.86421933E-03
   0.34950   0.84618531E-03
   0.35050   0.80879091E-03
   0.35150   0.84028771E-03
   0.35250   0.88399596E-03
   0.35350   0.81293995E-03
   0.35450   0.60973712E-03
   0.35550   0.40447226E-03
   0.35650   0.25562284E-03
   0.35750   0.15311323E-03
   0.35850   0.84206556E-04
   0.35950   0.45113535E-04
   0.36050   0.30749088E-04
   0.36150   0.30743500E-04
   0.36250   0.35356763E-04
   0.36350   0.39305378E-04
   0.36450   0.40047114E-04
   0.36550   0.37563044E-04
   0.36650   0.33531152E-04
   0.36750   0.29693438E-04
   0.36850   0.26834015E-04
   0.36950   0.24707690E-04
   0.37050   0.22542288E-04
   0.37150   0.19640336E-04
   0.37250   0.15795644E-04
   0.37350   0.11371799E-04
   0.37450   0.70695205E-05
   0.37550   0.35845239E-05
   0.37650   0.13507536E-05
   0.37750   0.43240178E-06
   0.37850   0.54245561E-06
   0.37950   0.11566462E-05
   0.38050   0.16892850E-05
   0.38150   0.16739529E-05
   0.38250   0.10499019E-05
   0.38350   0.43223901E-06
   0.38450   0.13562300E-06
   0.38550   0.17732387E-06
   0.38650   0.50603705E-06
   0.38750   0.10344264E-05
   0.38850   0.16573408E-05
   0.38950   0.22697225E-05
   0.39050   0.27818137E-05
   0.39150   0.31297061E-05
   0.39250   0.32804783E-05
   0.39350   0.32321864E-05
   0.39450   0.30096812E-05
   0.39550   0.26575954E-05
   0.39650   0.22319257E-05
   0.39750   0.17915102E-05
   0.39850   0.13904381E-05
   0.39950   0.10721354E-05
   0.40050   0.86554326E-06
   0.40150   0.78351121E-06
   0.40250   0.82326801E-06
   0.40350   0.96862118E-06
   0.40450   0.11933956E-05
   0.40550   0.14655528E-05
   0.40650   0.17514334E-05
   0.40750   0.20196323E-05
   0.40850   0.22441170E-05
   0.40950   0.24063115E-05
   0.41050   0.24959336E-05
   0.41150   0.25102870E-05
   0.41250   0.24511719E-05
   0.41350   0.23180869E-05
   0.41450   0.21369108E-05
   0.41550   0.21064591E-05
   0.41650   0.23510463E-05
   0.41750   0.28513427E-05
   0.41850   0.35577518E-05
   0.41950   0.44069675E-05
   0.42050   0.53289023E-05
   0.42150   0.62543172E-05
   0.42250   0.71221680E-05
   0.42350   0.78857784E-05
   0.42450   0.85173870E-05
   0.42550   0.90109061E-05
   0.42650   0.93829067E-05
   0.42750   0.96719368E-05
   0.42850   0.99363742E-05
   0.42950   0.10251055E-04
   0.43050   0.10703067E-04
   0.43150   0.11387135E-04
   0.43250   0.12401154E-04
   0.43350   0.13842428E-04
   0.43450   0.15805130E-04
   0.43550   0.18379435E-04
   0.43650   0.21652650E-04
   0.43750   0.25712594E-04
   0.43850   0.30653435E-04
   0.43950   0.36584261E-04
   0.44050   0.43640768E-04
   0.44150   0.52000822E-04
   0.44250   0.61904939E-04
   0.44350   0.73683601E-04
   0.44450   0.87794164E-04
   0.44550   0.10487207E-03
   0.44650   0.12580355E-03
   0.44750   0.15183214E-03
   0.44850   0.18471881E-03
   0.44950   0.22699041E-03
   0.45050   0.28233696E-03
   0.45150   0.35626770E-03
   0.45250   0.45723398E-03
   0.45350   0.59862918E-03
   0.45450   0.80251729E-03
   0.45550   0.11069616E-02
   0.45650   0.15813312E-02
   0.45750   0.23604594E-02
   0.45850   0.37249378E-02
   0.45950   0.62645846E-02
   0.46050   0.94261030E-02
   0.46150   0.38730487E-01
   0.46250   0.12920548E+00
   0.46350   0.21452716E+00
   0.46450   0.78856841E-01
   0.46550   0.36652718E-01
   0.46650   0.22663644E-01
   0.46750   0.16869172E-01
   0.46850   0.14400693E-01
   0.46950   0.13832309E-01
   0.47050   0.14818877E-01
   0.47150   0.16906282E-01
   0.47250   0.16095737E-01
   0.47350   0.10050539E-01
   0.47450   0.81026712E-02
   0.47550   0.96366433E-02
   0.47650   0.33740313E-02
   0.47750   0.38326712E-03
   0.47850   0.83934946E-03
   0.47950   0.19451628E-02
   0.48050   0.37151047E-02
   0.48150   0.64923349E-02
   0.48250   0.75477529E-02
   0.48350   0.65267547E-02
   0.48450   0.58281766E-02
   0.48550   0.50656078E-02
   0.48650   0.32541335E-02
   0.48750   0.16174483E-02
   0.48850   0.77805558E-03
   0.48950   0.39201532E-03
   0.49050   0.20683100E-03
   0.49150   0.11892375E-03
   0.49250   0.79539976E-04
   0.49350   0.54426531E-04
   0.49450   0.32782646E-04
   0.49550   0.19870462E-04
   0.49650   0.24361630E-04
   0.49750   0.56309909E-04
   0.49850   0.12337448E-03
   0.49950   0.21813287E-03
   0.50050   0.31791031E-03
   0.50150   0.39786045E-03
   0.50250   0.44411284E-03
   0.50350   0.45525303E-03
   0.50450   0.43600652E-03
   0.50550   0.39268180E-03
   0.50650   0.33235876E-03
   0.50750   0.26353111E-03
   0.50850   0.19557895E-03
   0.50950   0.13648547E-03
   0.51050   0.90657602E-04
   0.51150   0.58602935E-04
   0.51250   0.38176222E-04
   0.51350   0.26125937E-04
   0.51450   0.19202917E-04
   0.51550   0.14784270E-04
   0.51650   0.11181272E-04
   0.51750   0.77142940E-05
   0.51850   0.45456936E-05
   0.51950   0.23132311E-05
   0.52050   0.17274853E-05
   0.52150   0.30402307E-05
   0.52250   0.55230480E-05
   0.52350   0.85141482E-05
   0.52450   0.11567296E-04
   0.52550   0.14278632E-04
   0.52650   0.16292805E-04
   0.52750   0.17355158E-04
   0.52850   0.17368266E-04
   0.52950   0.16421947E-04
   0.53050   0.14781549E-04
   0.53150   0.12845331E-04
   0.53250   0.11070411E-04
   0.53350   0.96303038E-05
   0.53450   0.87226799E-05
   0.53550   0.92767650E-05
   0.53650   0.11654625E-04
   0.53750   0.15794327E-04
   0.53850   0.21438434E-04
   0.53950   0.28236151E-04
   0.54050   0.35818375E-04
   0.54150   0.43862434E-04
   0.54250   0.52146872E-04
   0.54350   0.60596158E-04
   0.54450   0.69318157E-04
   0.54550   0.78640944E-04
   0.54650   0.89160189E-04
   0.54750   0.10181505E-03
   0.54850   0.11802291E-03
   0.54950   0.13992868E-03
   0.55050   0.17087864E-03
   0.55150   0.21635395E-03
   0.55250   0.28590744E-03
   0.55350   0.39747986E-03
   0.55450   0.58798079E-03
   0.55550   0.94275188E-03
   0.55650   0.16932528E-02
   0.55750   0.36333704E-02
   0.55850   0.10699824E-01
   0.55950   0.48409648E-01
   0.56050   0.32719314E-01
   0.56150   0.10358725E-01
   0.56250   0.51898379E-02
   0.56350   0.33886204E-02
   0.56450   0.26086990E-02
   0.56550   0.22630077E-02
   0.56650   0.21654456E-02
   0.56750   0.22636903E-02
   0.56850   0.25734841E-02
   0.56950   0.31596122E-02
   0.57050   0.40802313E-02
   0.57150   0.51000626E-02
   0.57250   0.52683773E-02
   0.57350   0.41234270E-02
   0.57450   0.27366148E-02
   0.57550   0.17668719E-02
   0.57650   0.11773520E-02
   0.57750   0.82603091E-03
   0.57850   0.62933791E-03
   0.57950   0.55498071E-03
   0.58050   0.56815520E-03
   0.58150   0.55830315E-03
   0.58250   0.37527015E-03
   0.58350   0.10081135E-03
   0.58450   0.21892277E-03
   0.58550   0.52858616E-03
   0.58650   0.12740679E-02
   0.58750   0.10919109E-02
   0.58850   0.61622646E-03
   0.58950   0.22475990E-03
   0.59050   0.66447647E-04
   0.59150   0.88626010E-04
   0.59250   0.20094974E-03
   0.59350   0.37003186E-03
   0.59450   0.64405997E-03
   0.59550   0.11646808E-02
   0.59650   0.18444370E-02
   0.59750   0.17614067E-02
   0.59850   0.12229532E-02
   0.59950   0.84027532E-03
   0.60050   0.57643460E-03
   0.60150   0.34115245E-03
   0.60250   0.15556396E-03
   0.60350   0.72456103E-04
   0.60450   0.60377391E-04
   0.60550   0.75345357E-04
   0.60650   0.97888951E-04
   0.60750   0.12204473E-03
   0.60850   0.14722685E-03
   0.60950   0.17598960E-03
   0.61050   0.21237049E-03
   0.61150   0.25916789E-03
   0.61250   0.31716481E-03
   0.61350   0.38638088E-03
   0.61450   0.46674270E-03
   0.61550   0.55734877E-03
   0.61650   0.65416039E-03
   0.61750   0.74495614E-03
   0.61850   0.80434419E-03
   0.61950   0.82459499E-03
   0.62050   0.81403827E-03
   0.62150   0.77471149E-03
   0.62250   0.71900798E-03
   0.62350   0.67901902E-03
   0.62450   0.65012107E-03
   0.62550   0.62093075E-03
   0.62650   0.58805285E-03
   0.62750   0.55079517E-03
   0.62850   0.50965726E-03
   0.62950   0.46591685E-03
   0.63050   0.42143377E-03
   0.63150   0.37854284E-03
   0.63250   0.34010207E-03
   0.63350   0.30986065E-03
   0.63450   0.29345741E-03
   0.63550   0.30074993E-03
   0.63650   0.35128731E-03
   0.63750   0.48808521E-03
   0.63850   0.81544364E-03
   0.63950   0.16079169E-02
   0.64050   0.35484063E-02
   0.64150   0.69890381E-02
   0.64250   0.76326858E-02
   0.64350   0.52186986E-02
   0.64450   0.34319807E-02
   0.64550   0.24376046E-02
   0.64650   0.18666242E-02
   0.64750   0.15171049E-02
   0.64850   0.12929636E-02
   0.64950   0.11468654E-02
   0.65050   0.10544210E-02
   0.65150   0.10029420E-02
   0.65250   0.98639424E-03
   0.65350   0.10031497E-02
   0.65450   0.10551653E-02
   0.65550   0.11480226E-02
   0.65650   0.12915435E-02
   0.65750   0.15005767E-02
   0.65850   0.17945924E-02
   0.65950   0.21916181E-02
   0.66050   0.26850372E-02
   0.66150   0.31886385E-02
   0.66250   0.34868764E-02
   0.66350   0.33553913E-02
   0.66450   0.28363098E-02
   0.66550   0.21983772E-02
   0.66650   0.16430953E-02
   0.66750   0.12247437E-02
   0.66850   0.92553033E-03
   0.66950   0.71302918E-03
   0.67050   0.55932696E-03
   0.67150   0.44373714E-03
   0.67250   0.35231985E-03
   0.67350   0.28006692E-03
   0.67450   0.23470233E-03
   0.67550   0.22974066E-03
   0.67650   0.26958247E-03
   0.67750   0.34652217E-03
   0.67850   0.43123617E-03
   0.67950   0.47117381E-03
   0.68050   0.46043354E-03
   0.68150   0.45777875E-03
   0.68250   0.50647085E-03
   0.68350   0.49220340E-03
   0.68450   0.30634465E-03
   0.68550   0.19013889E-03
   0.68650   0.14361070E-03
   0.68750   0.12370977E-03
   0.68850   0.11363846E-03
   0.68950   0.10757605E-03
   0.69050   0.10348538E-03
   0.69150   0.10062740E-03
   0.69250   0.98584809E-04
   0.69350   0.97178447E-04
   0.69450   0.96489959E-04
   0.69550   0.96808770E-04
   0.69650   0.98507102E-04
   0.69750   0.10177593E-03
   0.69850   0.10594068E-03
   0.69950   0.10788709E-03
   0.70050   0.10135592E-03
   0.70150   0.86497967E-04
   0.70250   0.79212572E-04
   0.70350   0.89386835E-04
   0.70450   0.11495657E-03
   0.70550   0.15534824E-03
   0.70650   0.20758959E-03
   0.70750   0.25382760E-03
   0.70850   0.27918149E-03
   0.70950   0.28301863E-03
   0.71050   0.27399408E-03
   0.71150   0.26072061E-03
   0.71250   0.24830300E-03
   0.71350   0.23911985E-03
   0.71450   0.23421732E-03
   0.71550   0.23415769E-03
   0.71650   0.23938545E-03
   0.71750   0.25032688E-03
   0.71850   0.26734723E-03
   0.71950   0.29061842E-03
   0.72050   0.31994079E-03
   0.72150   0.35460704E-03
   0.72250   0.39346237E-03
   0.72350   0.43531763E-03
   0.72450   0.47972446E-03
   0.72550   0.52789913E-03
   0.72650   0.58357778E-03
   0.72750   0.65403356E-03
   0.72850   0.75242389E-03
   0.72950   0.90468652E-03
   0.73050   0.11711830E-02
   0.73150   0.17236200E-02
   0.73250   0.31294529E-02
   0.73350   0.56578931E-02
   0.73450   0.38679661E-02
   0.73550   0.20647577E-02
   0.73650   0.15118513E-02
   0.73750   0.13725890E-02
   0.73850   0.13878612E-02
   0.73950   0.14807892E-02
   0.74050   0.16273911E-02
   0.74150   0.18225958E-02
   0.74250   0.20698532E-02
   0.74350   0.23771445E-02
   0.74450   0.27541956E-02
   0.74550   0.32080479E-02
   0.74650   0.37339048E-02
   0.74750   0.42981002E-02
   0.74850   0.48153177E-02
   0.74950   0.51413625E-02
   0.75050   0.51254784E-02
   0.75150   0.47246837E-02
   0.75250   0.40630833E-02
   0.75350   0.33437777E-02
   0.75450   0.27225628E-02
   0.75550   0.22690247E-02
   0.75650   0.19960762E-02
   0.75750   0.18964392E-02
   0.75850   0.19603195E-02
   0.75950   0.21694894E-02
   0.76050   0.24693045E-02
   0.76150   0.27533830E-02
   0.76250   0.29254307E-02
   0.76350   0.29827636E-02
   0.76450   0.29908407E-02
   0.76550   0.30096869E-02
   0.76650   0.30679191E-02
   0.76750   0.31625775E-02
   0.76850   0.32565519E-02
   0.76950   0.33082836E-02
   0.77050   0.33402189E-02
   0.77150   0.34184973E-02
   0.77250   0.35535970E-02
   0.77350   0.36745344E-02
   0.77450   0.37091391E-02
   0.77550   0.36645974E-02
   0.77650   0.35917689E-02
   0.77750   0.35185229E-02
   0.77850   0.34402045E-02
   0.77950   0.33398243E-02
   0.78050   0.32082167E-02
   0.78150   0.30624431E-02
   0.78250   0.29593529E-02
   0.78350   0.29030584E-02
   0.78450   0.28839263E-02
   0.78550   0.29557617E-02
   0.78650   0.30677491E-02
   0.78750   0.30687645E-02
   0.78850   0.30243932E-02
   0.78950   0.29957658E-02
   0.79050   0.29899115E-02
   0.79150   0.29997095E-02
   0.79250   0.30149892E-02
   0.79350   0.30246533E-02
   0.79450   0.30178246E-02
   0.79550   0.29853641E-02
   0.79650   0.29216302E-02
   0.79750   0.28259701E-02
   0.79850   0.27034411E-02
   0.79950   0.25645338E-02
   0.80050   0.24240753E-02
   0.80150   0.22998413E-02
   0.80250   0.22113710E-02
   0.80350   0.21789386E-02
   0.80450   0.22218514E-02
   0.80550   0.23547485E-02
   0.80650   0.25809684E-02
   0.80750   0.28842071E-02
   0.80850   0.32236765E-02
   0.80950   0.35403515E-02
   0.81050   0.37762979E-02
   0.81150   0.38966972E-02
   0.81250   0.38994802E-02
   0.81350   0.38084637E-02
   0.81450   0.36588337E-02
   0.81550   0.34850980E-02
   0.81650   0.33151745E-02
   0.81750   0.31692800E-02
   0.81850   0.30611122E-02
   0.81950   0.29995930E-02
   0.82050   0.29903769E-02
   0.82150   0.30369554E-02
   0.82250   0.31415571E-02
   0.82350   0.33065118E-02
   0.82450   0.35385033E-02
   0.82550   0.38654543E-02
   0.82650   0.43348162E-02
   0.82750   0.48959004E-02
   0.82850   0.55125956E-02
   0.82950   0.61846091E-02
   0.83050   0.69134068E-02
   0.83150   0.76985471E-02
   0.83250   0.85380226E-02
   0.83350   0.94289500E-02
   0.83450   0.10368257E-01
   0.83550   0.11353198E-01
   0.83650   0.12381554E-01
   0.83750   0.13451519E-01
   0.83850   0.14561499E-01
   0.83950   0.15710102E-01
   0.84050   0.16896335E-01
   0.84150   0.18118661E-01
   0.84250   0.19366471E-01
   0.84350   0.20585364E-01
   0.84450   0.21707291E-01
   0.84550   0.22680745E-01
   0.84650   0.23401190E-01
   0.84750   0.23778114E-01
   0.84850   0.23789447E-01
   0.84950   0.23479097E-01
   0.85050   0.22909464E-01
   0.85150   0.22154029E-01
   0.85250   0.21305181E-01
   0.85350   0.20444235E-01
   0.85450   0.19598888E-01
   0.85550   0.18723324E-01
   0.85650   0.17704505E-01
   0.85750   0.16450081E-01
   0.85850   0.15375705E-01
   0.85950   0.15688153E-01
   0.86050   0.16488193E-01
   0.86150   0.20344581E-01
   0.86250   0.20271819E-01
   0.86350   0.19687865E-01
   0.86450   0.19582199E-01
   0.86550   0.20506967E-01
   0.86650   0.23162944E-01
   0.86750   0.26862023E-01
   0.86850   0.28540514E-01
   0.86950   0.27979331E-01
   0.87050   0.26895415E-01
   0.87150   0.25949359E-01
   0.87250   0.25242044E-01
   0.87350   0.24788296E-01
   0.87450   0.24592508E-01
   0.87550   0.24633858E-01
   0.87650   0.24871306E-01
   0.87750   0.25271574E-01
   0.87850   0.25821051E-01
   0.87950   0.26508559E-01
   0.88050   0.27297035E-01
   0.88150   0.28102456E-01
   0.88250   0.28792357E-01
   0.88350   0.29211735E-01
   0.88450   0.29233448E-01
   0.88550   0.28811587E-01
   0.88650   0.28004276E-01
   0.88750   0.26947567E-01
   0.88850   0.25797740E-01
   0.88950   0.24680220E-01
   0.89050   0.23670578E-01
   0.89150   0.22805501E-01
   0.89250   0.22105098E-01
   0.89350   0.21589935E-01
   0.89450   0.21287184E-01
   0.89550   0.21228930E-01
   0.89650   0.21447755E-01
   0.89750   0.21972464E-01
   0.89850   0.22824768E-01
   0.89950   0.24018733E-01
   0.90050   0.25568631E-01
   0.90150   0.27400538E-01
   0.90250   0.29221695E-01
   0.90350   0.30854797E-01
   0.90450   0.32241430E-01
   0.90550   0.33368193E-01
   0.90650   0.34267835E-01
   0.90750   0.35006948E-01
   0.90850   0.35663504E-01
   0.90950   0.36306534E-01
   0.91050   0.36982961E-01
   0.91150   0.37711125E-01
   0.91250   0.38479071E-01
   0.91350   0.39246831E-01
   0.91450   0.39953988E-01
   0.91550   0.40533666E-01
   0.91650   0.40931031E-01
   0.91750   0.41120101E-01
   0.91850   0.41108809E-01
   0.91950   0.40907007E-01
   0.92050   0.40326402E-01
   0.92150   0.37944529E-01
   0.92250   0.30665619E-01
   0.92350   0.27256036E-01
   0.92450   0.28855734E-01
   0.92550   0.30703366E-01
   0.92650   0.32455940E-01
   0.92750   0.34323294E-01
   0.92850   0.36429208E-01
   0.92950   0.38837697E-01
   0.93050   0.41598234E-01
   0.93150   0.44748683E-01
   0.93250   0.48267361E-01
   0.93350   0.51988672E-01
   0.93450   0.55551887E-01
   0.93550   0.58500979E-01
   0.93650   0.60550794E-01
   0.93750   0.61796136E-01
   0.93850   0.62643245E-01
   0.93950   0.63554332E-01
   0.94050   0.64835064E-01
   0.94150   0.66557601E-01
   0.94250   0.68589449E-01
   0.94350   0.70676729E-01
   0.94450   0.72531104E-01
   0.94550   0.73897764E-01
   0.94650   0.74671604E-01
   0.94750   0.74871093E-01
   0.94850   0.74583635E-01
   0.94950   0.73932089E-01
   0.95050   0.73038951E-01
   0.95150   0.72003104E-01
   0.95250   0.70890576E-01
   0.95350   0.69735490E-01
   0.95450   0.68544336E-01
   0.95550   0.67342460E-01
   0.95650   0.66433869E-01
   0.95750   0.65951765E-01
   0.95850   0.65712132E-01
   0.95950   0.65564908E-01
   0.96050   0.65408342E-01
   0.96150   0.65179341E-01
   0.96250   0.64849444E-01
   0.96350   0.64419985E-01
   0.96450   0.63913681E-01
   0.96550   0.63362427E-01
   0.96650   0.62793702E-01
   0.96750   0.62218625E-01
   0.96850   0.61621904E-01
   0.96950   0.60948715E-01
   0.97050   0.60074732E-01
   0.97150   0.58725458E-01
   0.97250   0.56287523E-01
   0.97350   0.51901013E-01
   0.97450   0.48235796E-01
   0.97550   0.50540503E-01
   0.97650   0.53639594E-01
   0.97750   0.55396724E-01
   0.97850   0.56588404E-01
   0.97950   0.57942826E-01
   0.98050   0.60059283E-01
   0.98150   0.63564345E-01
   0.98250   0.69098063E-01
   0.98350   0.76847561E-01
   0.98450   0.85670091E-01
   0.98550   0.93740821E-01
   0.98650   0.10084664E+00
   0.98750   0.10806219E+00
   0.98850   0.11612284E+00
   0.98950   0.12522089E+00
   0.99050   0.13531071E+00
   0.99150   0.14643678E+00
   0.99250   0.15872158E+00
   0.99350   0.17201588E+00
   0.99450   0.18552579E+00
   0.99550   0.19898197E+00
   0.99650   0.21318975E+00
   0.99750   0.22930256E+00
   0.99850   0.24819078E+00
   0.99950   0.26777378E+00
