# Transmission, k-averaged
# Date: 2021-05-13
#   E [eV]           T [G0]
   0.00050   0.14403355E+00
   0.00150   0.16220984E+00
   0.00250   0.59040990E-01
   0.00350   0.11795928E+00
   0.00450   0.78811692E-02
   0.00550   0.16420916E-01
   0.00650   0.48871306E-02
   0.00750   0.59087928E-01
   0.00850   0.35889172E-02
   0.00950   0.56783333E-02
   0.01050   0.44563815E-01
   0.01150   0.37689365E-02
   0.01250   0.32020702E-02
   0.01350   0.13434622E-01
   0.01450   0.20352878E-01
   0.01550   0.37090576E-02
   0.01650   0.28923599E-02
   0.01750   0.59279907E-02
   0.01850   0.58303840E-01
   0.01950   0.98538306E-02
   0.02050   0.33178984E-02
   0.02150   0.27353268E-02
   0.02250   0.44441149E-02
   0.02350   0.20847702E-01
   0.02450   0.29509071E-01
   0.02550   0.48960941E-02
   0.02650   0.25372868E-02
   0.02750   0.23659596E-02
   0.02850   0.37830046E-02
   0.02950   0.14588343E-01
   0.03050   0.44795483E-01
   0.03150   0.54599061E-02
   0.03250   0.23472221E-02
   0.03350   0.18206493E-02
   0.03450   0.22277604E-02
   0.03550   0.47567165E-02
   0.03650   0.30863499E-01
   0.03750   0.19233016E-01
   0.03850   0.43705679E-02
   0.03950   0.25255641E-02
   0.04050   0.24116382E-02
   0.04150   0.35378311E-02
   0.04250   0.89198994E-02
   0.04350   0.43248553E-01
   0.04450   0.18128943E-01
   0.04550   0.67269816E-02
   0.04650   0.47252369E-02
   0.04750   0.45813550E-02
   0.04850   0.54074721E-02
   0.04950   0.71237516E-02
   0.05050   0.91874320E-02
   0.05150   0.98963538E-02
   0.05250   0.87684654E-02
   0.05350   0.73042978E-02
   0.05450   0.63382653E-02
   0.05550   0.59178974E-02
   0.05650   0.59219208E-02
   0.05750   0.62235394E-02
   0.05850   0.66675688E-02
   0.05950   0.70458236E-02
   0.06050   0.71665104E-02
   0.06150   0.69851535E-02
   0.06250   0.66210250E-02
   0.06350   0.62347553E-02
   0.06450   0.59308042E-02
   0.06550   0.57462445E-02
   0.06650   0.56743599E-02
   0.06750   0.56843366E-02
   0.06850   0.57325172E-02
   0.06950   0.57722423E-02
   0.07050   0.57664909E-02
   0.07150   0.56996588E-02
   0.07250   0.55806078E-02
   0.07350   0.54345350E-02
   0.07450   0.52900338E-02
   0.07550   0.51693022E-02
   0.07650   0.50842972E-02
   0.07750   0.50371126E-02
   0.07850   0.50221318E-02
   0.07950   0.50286637E-02
   0.08050   0.50438419E-02
   0.08150   0.50557721E-02
   0.08250   0.50565000E-02
   0.08350   0.50439304E-02
   0.08450   0.50219758E-02
   0.08550   0.49989885E-02
   0.08650   0.49852948E-02
   0.08750   0.49908077E-02
   0.08850   0.50231512E-02
   0.08950   0.50855442E-02
   0.09050   0.51697358E-02
   0.09150   0.52162022E-02
   0.09250   0.50247251E-02
   0.09350   0.46487334E-02
   0.09450   0.42913011E-02
   0.09550   0.39799456E-02
   0.09650   0.37090408E-02
   0.09750   0.34723438E-02
   0.09850   0.32650034E-02
   0.09950   0.30829590E-02
   0.10050   0.29225105E-02
   0.10150   0.27801753E-02
   0.10250   0.26527117E-02
   0.10350   0.25372140E-02
   0.10450   0.24312118E-02
   0.10550   0.23327433E-02
   0.10650   0.22403791E-02
   0.10750   0.21531892E-02
   0.10850   0.20706607E-02
   0.10950   0.19925842E-02
   0.11050   0.19189259E-02
   0.11150   0.18497137E-02
   0.11250   0.17849471E-02
   0.11350   0.17245405E-02
   0.11450   0.16683007E-02
   0.11550   0.16159315E-02
   0.11650   0.15670579E-02
   0.11750   0.15212627E-02
   0.11850   0.14781257E-02
   0.11950   0.14372608E-02
   0.12050   0.13983441E-02
   0.12150   0.13611317E-02
   0.12250   0.13254639E-02
   0.12350   0.12912579E-02
   0.12450   0.12584921E-02
   0.12550   0.12271835E-02
   0.12650   0.11973645E-02
   0.12750   0.11690629E-02
   0.12850   0.11422852E-02
   0.12950   0.11170072E-02
   0.13050   0.10931717E-02
   0.13150   0.10706906E-02
   0.13250   0.10494534E-02
   0.13350   0.10293372E-02
   0.13450   0.10102183E-02
   0.13550   0.99198322E-03
   0.13650   0.97453769E-03
   0.13750   0.95781230E-03
   0.13850   0.94176445E-03
   0.13950   0.92637702E-03
   0.14050   0.91165362E-03
   0.14150   0.89761178E-03
   0.14250   0.88427507E-03
   0.14350   0.87166572E-03
   0.14450   0.85979787E-03
   0.14550   0.84867328E-03
   0.14650   0.83827862E-03
   0.14750   0.82858588E-03
   0.14850   0.81955414E-03
   0.14950   0.81113353E-03
   0.15050   0.80326991E-03
   0.15150   0.79591008E-03
   0.15250   0.78900653E-03
   0.15350   0.78252138E-03
   0.15450   0.77642890E-03
   0.15550   0.77071582E-03
   0.15650   0.76538062E-03
   0.15750   0.76043064E-03
   0.15850   0.75587851E-03
   0.15950   0.75173710E-03
   0.16050   0.74801553E-03
   0.16150   0.74471440E-03
   0.16250   0.74182259E-03
   0.16350   0.73931500E-03
   0.16450   0.73715072E-03
   0.16550   0.73527271E-03
   0.16650   0.73360692E-03
   0.16750   0.73205965E-03
   0.16850   0.73051080E-03
   0.16950   0.72879571E-03
   0.17050   0.72666322E-03
   0.17150   0.72367216E-03
   0.17250   0.71891898E-03
   0.17350   0.71020378E-03
   0.17450   0.69097203E-03
   0.17550   0.64160518E-03
   0.17650   0.56083489E-03
   0.17750   0.49258658E-03
   0.17850   0.44137239E-03
   0.17950   0.40148906E-03
   0.18050   0.36923037E-03
   0.18150   0.34239239E-03
   0.18250   0.31959318E-03
   0.18350   0.29991585E-03
   0.18450   0.28272267E-03
   0.18550   0.26755317E-03
   0.18650   0.25406445E-03
   0.18750   0.24199471E-03
   0.18850   0.23113974E-03
   0.18950   0.22133731E-03
   0.19050   0.21245645E-03
   0.19150   0.20438991E-03
   0.19250   0.19704869E-03
   0.19350   0.19035804E-03
   0.19450   0.18425455E-03
   0.19550   0.17868393E-03
   0.19650   0.17359928E-03
   0.19750   0.16895992E-03
   0.19850   0.16473034E-03
   0.19950   0.16087956E-03
   0.20050   0.15738053E-03
   0.20150   0.15420977E-03
   0.20250   0.15134702E-03
   0.20350   0.14877506E-03
   0.20450   0.14647951E-03
   0.20550   0.14444874E-03
   0.20650   0.14267380E-03
   0.20750   0.14114841E-03
   0.20850   0.13986901E-03
   0.20950   0.13883493E-03
   0.21050   0.13804878E-03
   0.21150   0.13751720E-03
   0.21250   0.13725249E-03
   0.21350   0.13727612E-03
   0.21450   0.13762768E-03
   0.21550   0.13839097E-03
   0.21650   0.13978782E-03
   0.21750   0.14244208E-03
   0.21850   0.14646437E-03
   0.21950   0.15065067E-03
   0.22050   0.15482737E-03
   0.22150   0.15913030E-03
   0.22250   0.16367280E-03
   0.22350   0.16854754E-03
   0.22450   0.17384184E-03
   0.22550   0.17964847E-03
   0.22650   0.18607492E-03
   0.22750   0.19325339E-03
   0.22850   0.20135404E-03
   0.22950   0.21060447E-03
   0.23050   0.22131955E-03
   0.23150   0.23394369E-03
   0.23250   0.24907346E-03
   0.23350   0.26708440E-03
   0.23450   0.28401066E-03
   0.23550   0.28546096E-03
   0.23650   0.27659943E-03
   0.23750   0.26647374E-03
   0.23850   0.25691304E-03
   0.23950   0.24814234E-03
   0.24050   0.24010775E-03
   0.24150   0.23271395E-03
   0.24250   0.22587179E-03
   0.24350   0.21950669E-03
   0.24450   0.21355803E-03
   0.24550   0.20797685E-03
   0.24650   0.20272346E-03
   0.24750   0.19776568E-03
   0.24850   0.19307723E-03
   0.24950   0.18863664E-03
   0.25050   0.18442639E-03
   0.25150   0.18043215E-03
   0.25250   0.17664234E-03
   0.25350   0.17304758E-03
   0.25450   0.16964041E-03
   0.25550   0.16641493E-03
   0.25650   0.16336657E-03
   0.25750   0.16049175E-03
   0.25850   0.15778776E-03
   0.25950   0.15525249E-03
   0.26050   0.15288427E-03
   0.26150   0.15068171E-03
   0.26250   0.14864356E-03
   0.26350   0.14676861E-03
   0.26450   0.14505557E-03
   0.26550   0.14350309E-03
   0.26650   0.14210967E-03
   0.26750   0.14087372E-03
   0.26850   0.13979361E-03
   0.26950   0.13886778E-03
   0.27050   0.13809474E-03
   0.27150   0.13747334E-03
   0.27250   0.13700288E-03
   0.27350   0.13668326E-03
   0.27450   0.13651520E-03
   0.27550   0.13650050E-03
   0.27650   0.13664215E-03
   0.27750   0.13694467E-03
   0.27850   0.13741429E-03
   0.27950   0.13805920E-03
   0.28050   0.13888988E-03
   0.28150   0.13991930E-03
   0.28250   0.14116327E-03
   0.28350   0.14264078E-03
   0.28450   0.14437443E-03
   0.28550   0.14639074E-03
   0.28650   0.14872085E-03
   0.28750   0.15140095E-03
   0.28850   0.15447305E-03
   0.28950   0.15798563E-03
   0.29050   0.16199451E-03
   0.29150   0.16656332E-03
   0.29250   0.17176321E-03
   0.29350   0.17767007E-03
   0.29450   0.18435398E-03
   0.29550   0.19184318E-03
   0.29650   0.19999380E-03
   0.29750   0.20793505E-03
   0.29850   0.21144774E-03
   0.29950   0.20154438E-03
   0.30050   0.18694923E-03
   0.30150   0.17571641E-03
   0.30250   0.16762862E-03
   0.30350   0.16183687E-03
   0.30450   0.15775239E-03
   0.30550   0.15498737E-03
   0.30650   0.15327679E-03
   0.30750   0.15243050E-03
   0.30850   0.15230510E-03
   0.30950   0.15278692E-03
   0.31050   0.15378132E-03
   0.31150   0.15520571E-03
   0.31250   0.15698464E-03
   0.31350   0.15904657E-03
   0.31450   0.16132147E-03
   0.31550   0.16373934E-03
   0.31650   0.16622909E-03
   0.31750   0.16871814E-03
   0.31850   0.17113236E-03
   0.31950   0.17339640E-03
   0.32050   0.17543460E-03
   0.32150   0.17717203E-03
   0.32250   0.17853602E-03
   0.32350   0.17945790E-03
   0.32450   0.17987497E-03
   0.32550   0.17973248E-03
   0.32650   0.17898555E-03
   0.32750   0.17760106E-03
   0.32850   0.17555902E-03
   0.32950   0.17285351E-03
   0.33050   0.16949303E-03
   0.33150   0.16549978E-03
   0.33250   0.16090805E-03
   0.33350   0.15576075E-03
   0.33450   0.15010357E-03
   0.33550   0.14397476E-03
   0.33650   0.13738725E-03
   0.33750   0.13029733E-03
   0.33850   0.12255104E-03
   0.33950   0.11380573E-03
   0.34050   0.10346364E-03
   0.34150   0.90797977E-04
   0.34250   0.75706237E-04
   0.34350   0.60306509E-04
   0.34450   0.49568651E-04
   0.34550   0.47799909E-04
   0.34650   0.54056934E-04
   0.34750   0.63553831E-04
   0.34850   0.72317904E-04
   0.34950   0.78893543E-04
   0.35050   0.83442508E-04
   0.35150   0.86648164E-04
   0.35250   0.89183792E-04
   0.35350   0.91567970E-04
   0.35450   0.94170777E-04
   0.35550   0.97256292E-04
   0.35650   0.10102356E-03
   0.35750   0.10563900E-03
   0.35850   0.11126281E-03
   0.35950   0.11807700E-03
   0.36050   0.12633191E-03
   0.36150   0.13646808E-03
   0.36250   0.14936858E-03
   0.36350   0.16489821E-03
   0.36450   0.18102699E-03
   0.36550   0.19739436E-03
   0.36650   0.21388986E-03
   0.36750   0.23001590E-03
   0.36850   0.24474593E-03
   0.36950   0.25633449E-03
   0.37050   0.26210144E-03
   0.37150   0.25833049E-03
   0.37250   0.24061871E-03
   0.37350   0.20541191E-03
   0.37450   0.15428323E-03
   0.37550   0.10425651E-03
   0.37650   0.10926023E-03
   0.37750   0.28001255E-03
   0.37850   0.67907688E-03
   0.37950   0.10074227E-02
   0.38050   0.10847381E-02
   0.38150   0.11627269E-02
   0.38250   0.13366503E-02
   0.38350   0.14052262E-02
   0.38450   0.13339152E-02
   0.38550   0.11784666E-02
   0.38650   0.10120408E-02
   0.38750   0.87577972E-03
   0.38850   0.78200357E-03
   0.38950   0.72903663E-03
   0.39050   0.71089709E-03
   0.39150   0.72239607E-03
   0.39250   0.76329877E-03
   0.39350   0.84675831E-03
   0.39450   0.10151996E-02
   0.39550   0.65999303E-03
   0.39650   0.31101578E-03
   0.39750   0.87183359E-03
   0.39850   0.11797604E-02
   0.39950   0.39716519E-03
   0.40050   0.38701349E-02
   0.40150   0.52340049E-02
   0.40250   0.52802553E-02
   0.40350   0.25485056E-02
   0.40450   0.15365583E-02
   0.40550   0.12088029E-02
   0.40650   0.10186292E-02
   0.40750   0.84192335E-03
   0.40850   0.73570572E-03
   0.40950   0.68572111E-03
   0.41050   0.65811200E-03
   0.41150   0.64811617E-03
   0.41250   0.65912632E-03
   0.41350   0.67524164E-03
   0.41450   0.66441362E-03
   0.41550   0.63659495E-03
   0.41650   0.61675819E-03
   0.41750   0.60599088E-03
   0.41850   0.60009613E-03
   0.41950   0.59468060E-03
   0.42050   0.58701431E-03
   0.42150   0.57641132E-03
   0.42250   0.56346966E-03
   0.42350   0.54904638E-03
   0.42450   0.53370500E-03
   0.42550   0.51770196E-03
   0.42650   0.50119351E-03
   0.42750   0.48440931E-03
   0.42850   0.46770691E-03
   0.42950   0.45151741E-03
   0.43050   0.43623525E-03
   0.43150   0.42212530E-03
   0.43250   0.40929945E-03
   0.43350   0.39776330E-03
   0.43450   0.38749195E-03
   0.43550   0.37848917E-03
   0.43650   0.37080704E-03
   0.43750   0.36452789E-03
   0.43850   0.35972628E-03
   0.43950   0.35643103E-03
   0.44050   0.35460317E-03
   0.44150   0.35413660E-03
   0.44250   0.35487977E-03
   0.44350   0.35666930E-03
   0.44450   0.35936420E-03
   0.44550   0.36287089E-03
   0.44650   0.36715221E-03
   0.44750   0.37221998E-03
   0.44850   0.37811470E-03
   0.44950   0.38487892E-03
   0.45050   0.39253180E-03
   0.45150   0.40105073E-03
   0.45250   0.41036287E-03
   0.45350   0.42034613E-03
   0.45450   0.43083643E-03
   0.45550   0.44163776E-03
   0.45650   0.45253194E-03
   0.45750   0.46328717E-03
   0.45850   0.47366691E-03
   0.45950   0.48344056E-03
   0.46050   0.49239659E-03
   0.46150   0.50035719E-03
   0.46250   0.50719082E-03
   0.46350   0.51282073E-03
   0.46450   0.51722809E-03
   0.46550   0.52045152E-03
   0.46650   0.52258564E-03
   0.46750   0.52377890E-03
   0.46850   0.52423170E-03
   0.46950   0.52419142E-03
   0.47050   0.52394468E-03
   0.47150   0.52380678E-03
   0.47250   0.52411016E-03
   0.47350   0.52519381E-03
   0.47450   0.52739365E-03
   0.47550   0.53103291E-03
   0.47650   0.53641113E-03
   0.47750   0.54379430E-03
   0.47850   0.55341743E-03
   0.47950   0.56552381E-03
   0.48050   0.58049819E-03
   0.48150   0.59918949E-03
   0.48250   0.62304968E-03
   0.48350   0.64627721E-03
   0.48450   0.63596724E-03
   0.48550   0.63012692E-03
   0.48650   0.64275903E-03
   0.48750   0.65709394E-03
   0.48850   0.67004107E-03
   0.48950   0.68113749E-03
   0.49050   0.69020904E-03
   0.49150   0.69712906E-03
   0.49250   0.70181570E-03
   0.49350   0.70426345E-03
   0.49450   0.70458814E-03
   0.49550   0.70311001E-03
   0.49650   0.70058624E-03
   0.49750   0.69911516E-03
   0.49850   0.70407882E-03
   0.49950   0.71435224E-03
   0.50050   0.72312355E-03
   0.50150   0.73035475E-03
   0.50250   0.73698780E-03
   0.50350   0.74364850E-03
   0.50450   0.75068627E-03
   0.50550   0.75823022E-03
   0.50650   0.76618674E-03
   0.50750   0.77417033E-03
   0.50850   0.78135048E-03
   0.50950   0.78629615E-03
   0.51050   0.78810018E-03
   0.51150   0.80142566E-03
   0.51250   0.92750258E-03
   0.51350   0.10979975E-02
   0.51450   0.11452466E-02
   0.51550   0.11760069E-02
   0.51650   0.12185799E-02
   0.51750   0.12755868E-02
   0.51850   0.13473080E-02
   0.51950   0.14311688E-02
   0.52050   0.15008098E-02
   0.52150   0.14786288E-02
   0.52250   0.14083614E-02
   0.52350   0.13499506E-02
   0.52450   0.13079667E-02
   0.52550   0.12793395E-02
   0.52650   0.12614795E-02
   0.52750   0.12527907E-02
   0.52850   0.12524987E-02
   0.52950   0.12604939E-02
   0.53050   0.12771080E-02
   0.53150   0.13019225E-02
   0.53250   0.13250433E-02
   0.53350   0.12945823E-02
   0.53450   0.12037299E-02
   0.53550   0.11135365E-02
   0.53650   0.10358915E-02
   0.53750   0.96909114E-03
   0.53850   0.91054192E-03
   0.53950   0.85802015E-03
   0.54050   0.80960058E-03
   0.54150   0.76358567E-03
   0.54250   0.71671768E-03
   0.54350   0.64577576E-03
   0.54450   0.49077318E-03
   0.54550   0.66339056E-03
   0.54650   0.72265073E-03
   0.54750   0.70243585E-03
   0.54850   0.69500023E-03
   0.54950   0.73251035E-03
   0.55050   0.99163060E-03
   0.55150   0.29023632E-02
   0.55250   0.80884626E-03
   0.55350   0.39435198E-03
   0.55450   0.54829341E-03
   0.55550   0.16812474E-02
   0.55650   0.34763706E-02
   0.55750   0.71806878E-01
   0.55850   0.20615613E-01
   0.55950   0.97846966E-02
   0.56050   0.78532994E-02
   0.56150   0.59865187E-02
   0.56250   0.49980567E-02
   0.56350   0.44594365E-02
   0.56450   0.43476573E-02
   0.56550   0.42869076E-02
   0.56650   0.38437678E-02
   0.56750   0.34864463E-02
   0.56850   0.33001190E-02
   0.56950   0.29540097E-02
   0.57050   0.24705098E-02
   0.57150   0.21394652E-02
   0.57250   0.19844845E-02
   0.57350   0.19278929E-02
   0.57450   0.18999565E-02
   0.57550   0.18707501E-02
   0.57650   0.18621172E-02
   0.57750   0.18974365E-02
   0.57850   0.19713971E-02
   0.57950   0.20553782E-02
   0.58050   0.21222963E-02
   0.58150   0.21691839E-02
   0.58250   0.22097130E-02
   0.58350   0.22515794E-02
   0.58450   0.22864528E-02
   0.58550   0.22968915E-02
   0.58650   0.22715428E-02
   0.58750   0.22144411E-02
   0.58850   0.21400261E-02
   0.58950   0.20614990E-02
   0.59050   0.19839040E-02
   0.59150   0.19045353E-02
   0.59250   0.18177403E-02
   0.59350   0.17205428E-02
   0.59450   0.16156879E-02
   0.59550   0.15103933E-02
   0.59650   0.14125289E-02
   0.59750   0.13274573E-02
   0.59850   0.12570581E-02
   0.59950   0.12004141E-02
   0.60050   0.11551529E-02
   0.60150   0.11188010E-02
   0.60250   0.10897581E-02
   0.60350   0.10676227E-02
   0.60450   0.10528456E-02
   0.60550   0.10460282E-02
   0.60650   0.10472955E-02
   0.60750   0.10560021E-02
   0.60850   0.10708023E-02
   0.60950   0.10899991E-02
   0.61050   0.11120503E-02
   0.61150   0.11360836E-02
   0.61250   0.11622495E-02
   0.61350   0.11917952E-02
   0.61450   0.12268898E-02
   0.61550   0.12702871E-02
   0.61650   0.13242261E-02
   0.61750   0.13808350E-02
   0.61850   0.13793247E-02
   0.61950   0.13021479E-02
   0.62050   0.12161835E-02
   0.62150   0.11430458E-02
   0.62250   0.10910201E-02
   0.62350   0.10486685E-02
   0.62450   0.10012251E-02
   0.62550   0.95149357E-03
   0.62650   0.90242585E-03
   0.62750   0.85544871E-03
   0.62850   0.81121171E-03
   0.62950   0.77000295E-03
   0.63050   0.73195173E-03
   0.63150   0.69712230E-03
   0.63250   0.66555029E-03
   0.63350   0.63724717E-03
   0.63450   0.61219133E-03
   0.63550   0.59031713E-03
   0.63650   0.57150994E-03
   0.63750   0.55560953E-03
   0.63850   0.54242188E-03
   0.63950   0.53173624E-03
   0.64050   0.52334194E-03
   0.64150   0.51704334E-03
   0.64250   0.51266863E-03
   0.64350   0.51007333E-03
   0.64450   0.50913886E-03
   0.64550   0.50976890E-03
   0.64650   0.51188504E-03
   0.64750   0.51542424E-03
   0.64850   0.52033993E-03
   0.64950   0.52660744E-03
   0.65050   0.53423498E-03
   0.65150   0.54328091E-03
   0.65250   0.55387936E-03
   0.65350   0.56627806E-03
   0.65450   0.58090145E-03
   0.65550   0.59846975E-03
   0.65650   0.62026270E-03
   0.65750   0.64882042E-03
   0.65850   0.69027045E-03
   0.65950   0.76504989E-03
   0.66050   0.98845549E-03
   0.66150   0.16740094E-02
   0.66250   0.36692889E-02
   0.66350   0.80247951E-03
   0.66450   0.83346933E-03
   0.66550   0.94112306E-03
   0.66650   0.11072031E-02
   0.66750   0.14155199E-02
   0.66850   0.22042391E-02
   0.66950   0.43613575E-02
   0.67050   0.64165792E-02
   0.67150   0.96612452E-02
   0.67250   0.21204930E-01
   0.67350   0.20972650E-01
   0.67450   0.17534520E-01
   0.67550   0.27707897E-01
   0.67650   0.19307934E-01
   0.67750   0.10620881E-01
   0.67850   0.11000566E-01
   0.67950   0.12188364E-01
   0.68050   0.11860074E-01
   0.68150   0.10724332E-01
   0.68250   0.10661306E-01
   0.68350   0.11342258E-01
   0.68450   0.12263829E-01
   0.68550   0.12840510E-01
   0.68650   0.12732321E-01
   0.68750   0.11842860E-01
   0.68850   0.10704492E-01
   0.68950   0.99360999E-02
   0.69050   0.94755115E-02
   0.69150   0.91271847E-02
   0.69250   0.87070214E-02
   0.69350   0.81146751E-02
   0.69450   0.73952703E-02
   0.69550   0.66773202E-02
   0.69650   0.60514463E-02
   0.69750   0.55401279E-02
   0.69850   0.51255445E-02
   0.69950   0.47729574E-02
   0.70050   0.44493610E-02
   0.70150   0.41435822E-02
   0.70250   0.38714993E-02
   0.70350   0.36576493E-02
   0.70450   0.35101767E-02
   0.70550   0.33972941E-02
   0.70650   0.32991413E-02
   0.70750   0.32426985E-02
   0.70850   0.32205130E-02
   0.70950   0.32180091E-02
   0.71050   0.32244793E-02
   0.71150   0.32329718E-02
   0.71250   0.32386386E-02
   0.71350   0.32373932E-02
   0.71450   0.32254490E-02
   0.71550   0.31996388E-02
   0.71650   0.31580410E-02
   0.71750   0.31004029E-02
   0.71850   0.30280768E-02
   0.71950   0.29435151E-02
   0.72050   0.28495896E-02
   0.72150   0.27490398E-02
   0.72250   0.26442122E-02
   0.72350   0.25370845E-02
   0.72450   0.24294534E-02
   0.72550   0.23231346E-02
   0.72650   0.22200756E-02
   0.72750   0.21223617E-02
   0.72850   0.20321729E-02
   0.72950   0.19518309E-02
   0.73050   0.18842482E-02
   0.73150   0.18346155E-02
   0.73250   0.18107068E-02
   0.73350   0.17987959E-02
   0.73450   0.17848884E-02
   0.73550   0.17721966E-02
   0.73650   0.17631950E-02
   0.73750   0.17588059E-02
   0.73850   0.17592290E-02
   0.73950   0.17643279E-02
   0.74050   0.17738001E-02
   0.74150   0.17872511E-02
   0.74250   0.18042269E-02
   0.74350   0.18242319E-02
   0.74450   0.18467484E-02
   0.74550   0.18712654E-02
   0.74650   0.18973246E-02
   0.74750   0.19245880E-02
   0.74850   0.19529314E-02
   0.74950   0.19825783E-02
   0.75050   0.20143182E-02
   0.75150   0.20499281E-02
   0.75250   0.20931812E-02
   0.75350   0.21528464E-02
   0.75450   0.22541329E-02
   0.75550   0.25005192E-02
   0.75650   0.36293978E-02
   0.75750   0.91864336E-02
   0.75850   0.72121969E-02
   0.75950   0.10080149E-01
   0.76050   0.34010399E-01
   0.76150   0.13300018E-01
   0.76250   0.61172470E-02
   0.76350   0.50399178E-02
   0.76450   0.53118663E-02
   0.76550   0.65815607E-02
   0.76650   0.95585305E-02
   0.76750   0.16247576E-01
   0.76850   0.29422671E-01
   0.76950   0.44686031E-01
   0.77050   0.45093466E-01
   0.77150   0.42112704E-01
   0.77250   0.36960013E-01
   0.77350   0.28673744E-01
   0.77450   0.22818685E-01
   0.77550   0.19353831E-01
   0.77650   0.16306601E-01
   0.77750   0.14867317E-01
   0.77850   0.13951848E-01
   0.77950   0.12041176E-01
   0.78050   0.11145561E-01
   0.78150   0.11412666E-01
   0.78250   0.12062824E-01
   0.78350   0.12262141E-01
   0.78450   0.11777898E-01
   0.78550   0.11148841E-01
   0.78650   0.10764974E-01
   0.78750   0.10460144E-01
   0.78850   0.98702246E-02
   0.78950   0.90470072E-02
   0.79050   0.83382120E-02
   0.79150   0.78906417E-02
   0.79250   0.76248334E-02
   0.79350   0.73721469E-02
   0.79450   0.69842408E-02
   0.79550   0.64709219E-02
   0.79650   0.60092756E-02
   0.79750   0.57364074E-02
   0.79850   0.56507844E-02
   0.79950   0.56886817E-02
   0.80050   0.57927198E-02
   0.80150   0.59286896E-02
   0.80250   0.60778903E-02
   0.80350   0.62240325E-02
   0.80450   0.63491990E-02
   0.80550   0.64433445E-02
   0.80650   0.65107620E-02
   0.80750   0.65622493E-02
   0.80850   0.66047763E-02
   0.80950   0.66387630E-02
   0.81050   0.66611548E-02
   0.81150   0.66701551E-02
   0.81250   0.66689556E-02
   0.81350   0.66663888E-02
   0.81450   0.66739037E-02
   0.81550   0.67008846E-02
   0.81650   0.67512384E-02
   0.81750   0.68227304E-02
   0.81850   0.69089113E-02
   0.81950   0.70026997E-02
   0.82050   0.71003297E-02
   0.82150   0.72043277E-02
   0.82250   0.73248604E-02
   0.82350   0.74804062E-02
   0.82450   0.77019916E-02
   0.82550   0.80513302E-02
   0.82650   0.85692573E-02
   0.82750   0.91372197E-02
   0.82850   0.97360974E-02
   0.82950   0.10408676E-01
   0.83050   0.11235679E-01
   0.83150   0.12460251E-01
   0.83250   0.15196157E-01
   0.83350   0.27687686E-01
   0.83450   0.24622897E-01
   0.83550   0.15656969E-01
   0.83650   0.14663621E-01
   0.83750   0.14885834E-01
   0.83850   0.15493671E-01
   0.83950   0.16338676E-01
   0.84050   0.17418219E-01
   0.84150   0.18792732E-01
   0.84250   0.20540079E-01
   0.84350   0.22647386E-01
   0.84450   0.25863614E-01
   0.84550   0.31720597E-01
   0.84650   0.39332349E-01
   0.84750   0.39723389E-01
   0.84850   0.32808043E-01
   0.84950   0.28337481E-01
   0.85050   0.27692886E-01
   0.85150   0.29458642E-01
   0.85250   0.30960966E-01
   0.85350   0.27791539E-01
   0.85450   0.24555845E-01
   0.85550   0.23269249E-01
   0.85650   0.23502052E-01
   0.85750   0.25426855E-01
   0.85850   0.30611524E-01
   0.85950   0.43863975E-01
   0.86050   0.59703968E-01
   0.86150   0.46740398E-01
   0.86250   0.39778274E-01
   0.86350   0.44618689E-01
   0.86450   0.52405059E-01
   0.86550   0.51320594E-01
   0.86650   0.44119641E-01
   0.86750   0.37526611E-01
   0.86850   0.33933308E-01
   0.86950   0.32876987E-01
   0.87050   0.33440977E-01
   0.87150   0.33574428E-01
   0.87250   0.31849187E-01
   0.87350   0.29512238E-01
   0.87450   0.27613526E-01
   0.87550   0.26545813E-01
   0.87650   0.26754821E-01
   0.87750   0.28183347E-01
   0.87850   0.30107103E-01
   0.87950   0.32488689E-01
   0.88050   0.35166219E-01
   0.88150   0.36531899E-01
   0.88250   0.34681946E-01
   0.88350   0.30489381E-01
   0.88450   0.26451996E-01
   0.88550   0.23815665E-01
   0.88650   0.22556046E-01
   0.88750   0.22250911E-01
   0.88850   0.22584476E-01
   0.88950   0.23512969E-01
   0.89050   0.25187327E-01
   0.89150   0.27679946E-01
   0.89250   0.30621672E-01
   0.89350   0.33258695E-01
   0.89450   0.35113629E-01
   0.89550   0.36309391E-01
   0.89650   0.37254252E-01
   0.89750   0.38345229E-01
   0.89850   0.39959636E-01
   0.89950   0.42808384E-01
   0.90050   0.49908720E-01
   0.90150   0.60642146E-01
   0.90250   0.57933688E-01
   0.90350   0.59439611E-01
   0.90450   0.62289827E-01
   0.90550   0.65484352E-01
   0.90650   0.68838008E-01
   0.90750   0.72336465E-01
   0.90850   0.76007850E-01
   0.90950   0.79896934E-01
   0.91050   0.84075451E-01
   0.91150   0.88683143E-01
   0.91250   0.94009496E-01
   0.91350   0.10062861E+00
   0.91450   0.10939325E+00
   0.91550   0.11878986E+00
   0.91650   0.12064514E+00
   0.91750   0.12185910E+00
   0.91850   0.12697071E+00
   0.91950   0.13165711E+00
   0.92050   0.13273267E+00
   0.92150   0.13018477E+00
   0.92250   0.12708876E+00
   0.92350   0.12700401E+00
   0.92450   0.13062483E+00
   0.92550   0.13484137E+00
   0.92650   0.13947231E+00
   0.92750   0.14513391E+00
   0.92850   0.15117735E+00
   0.92950   0.15786743E+00
   0.93050   0.16580757E+00
   0.93150   0.17507872E+00
   0.93250   0.18470393E+00
   0.93350   0.19279665E+00
   0.93450   0.19831963E+00
   0.93550   0.20327459E+00
   0.93650   0.21267453E+00
   0.93750   0.22992091E+00
   0.93850   0.24480659E+00
   0.93950   0.24633311E+00
   0.94050   0.24173978E+00
   0.94150   0.23859818E+00
   0.94250   0.24095578E+00
   0.94350   0.24876007E+00
   0.94450   0.26014936E+00
   0.94550   0.27342752E+00
   0.94650   0.28748345E+00
   0.94750   0.30038771E+00
   0.94850   0.31001127E+00
   0.94950   0.31502950E+00
   0.95050   0.31606200E+00
   0.95150   0.31564277E+00
   0.95250   0.31646359E+00
   0.95350   0.31969789E+00
   0.95450   0.32535601E+00
   0.95550   0.33480808E+00
   0.95650   0.34961706E+00
   0.95750   0.37161934E+00
   0.95850   0.38433290E+00
   0.95950   0.38713714E+00
   0.96050   0.39194882E+00
   0.96150   0.39753217E+00
   0.96250   0.40292218E+00
   0.96350   0.40768313E+00
   0.96450   0.41165578E+00
   0.96550   0.41498801E+00
   0.96650   0.41835812E+00
   0.96750   0.42309371E+00
   0.96850   0.43042254E+00
   0.96950   0.44032842E+00
   0.97050   0.45202798E+00
   0.97150   0.46510956E+00
   0.97250   0.47959036E+00
   0.97350   0.49545705E+00
   0.97450   0.51231718E+00
   0.97550   0.52929473E+00
   0.97650   0.54548502E+00
   0.97750   0.56003863E+00
   0.97850   0.57250142E+00
   0.97950   0.58323687E+00
   0.98050   0.59320849E+00
   0.98150   0.60363346E+00
   0.98250   0.61573422E+00
   0.98350   0.63045567E+00
   0.98450   0.64776242E+00
   0.98550   0.66608012E+00
   0.98650   0.68436497E+00
   0.98750   0.70506960E+00
   0.98850   0.73014992E+00
   0.98950   0.75476265E+00
   0.99050   0.78205627E+00
   0.99150   0.81310666E+00
   0.99250   0.84270567E+00
   0.99350   0.86308652E+00
   0.99450   0.87080657E+00
   0.99550   0.86747181E+00
   0.99650   0.85489935E+00
   0.99750   0.83805627E+00
   0.99850   0.82277834E+00
   0.99950   0.81007075E+00
