# Transmission, k-averaged
# Date: 2021-05-13
#   E [eV]           T [G0]
   0.00050   0.41202265E+00
   0.00150   0.19373171E+00
   0.00250   0.65737404E-01
   0.00350   0.83681174E-01
   0.00450   0.51345681E-02
   0.00550   0.92499582E-02
   0.00650   0.38974711E-02
   0.00750   0.23527468E-01
   0.00850   0.25192036E-02
   0.00950   0.68918476E-02
   0.01050   0.12080596E-01
   0.01150   0.22398827E-02
   0.01250   0.29900693E-02
   0.01350   0.34693178E-01
   0.01450   0.46846252E-02
   0.01550   0.18033613E-02
   0.01650   0.22073248E-02
   0.01750   0.99007869E-02
   0.01850   0.12693691E-01
   0.01950   0.22515494E-02
   0.02050   0.14142053E-02
   0.02150   0.18665858E-02
   0.02250   0.62741986E-02
   0.02350   0.22443445E-01
   0.02450   0.29260514E-02
   0.02550   0.13431648E-02
   0.02650   0.11852999E-02
   0.02750   0.18241187E-02
   0.02850   0.64481818E-02
   0.02950   0.21172710E-01
   0.03050   0.29565329E-02
   0.03150   0.12769934E-02
   0.03250   0.99467614E-03
   0.03350   0.12174252E-02
   0.03450   0.25811503E-02
   0.03550   0.15823504E-01
   0.03650   0.84401937E-02
   0.03750   0.19239787E-02
   0.03850   0.10428040E-02
   0.03950   0.91327092E-03
   0.04050   0.12194612E-02
   0.04150   0.28748321E-02
   0.04250   0.18798709E-01
   0.04350   0.57358751E-02
   0.04450   0.17147200E-02
   0.04550   0.12016728E-02
   0.04650   0.13050535E-02
   0.04750   0.17987236E-02
   0.04850   0.28959855E-02
   0.04950   0.43752324E-02
   0.05050   0.43007019E-02
   0.05150   0.31071440E-02
   0.05250   0.23239830E-02
   0.05350   0.20031747E-02
   0.05450   0.19875483E-02
   0.05550   0.22050715E-02
   0.05650   0.26048359E-02
   0.05750   0.30409985E-02
   0.05850   0.32492077E-02
   0.05950   0.31213649E-02
   0.06050   0.28408072E-02
   0.06150   0.26051428E-02
   0.06250   0.24883344E-02
   0.06350   0.24924278E-02
   0.06450   0.25935373E-02
   0.06550   0.27517583E-02
   0.06650   0.29118725E-02
   0.06750   0.30180837E-02
   0.06850   0.30429955E-02
   0.06950   0.30016880E-02
   0.07050   0.29339958E-02
   0.07150   0.28774126E-02
   0.07250   0.28539062E-02
   0.07350   0.28699099E-02
   0.07450   0.29203640E-02
   0.07550   0.29924309E-02
   0.07650   0.30690841E-02
   0.07750   0.31337184E-02
   0.07850   0.31753120E-02
   0.07950   0.31917826E-02
   0.08050   0.31895095E-02
   0.08150   0.31795797E-02
   0.08250   0.31732821E-02
   0.08350   0.31789385E-02
   0.08450   0.32005487E-02
   0.08550   0.32377311E-02
   0.08650   0.32863771E-02
   0.08750   0.33397770E-02
   0.08850   0.33901881E-02
   0.08950   0.34306867E-02
   0.09050   0.34568368E-02
   0.09150   0.34676732E-02
   0.09250   0.34688676E-02
   0.09350   0.34747566E-02
   0.09450   0.34908061E-02
   0.09550   0.35164815E-02
   0.09650   0.35497067E-02
   0.09750   0.35875635E-02
   0.09850   0.36268786E-02
   0.09950   0.36648109E-02
   0.10050   0.36993322E-02
   0.10150   0.37294934E-02
   0.10250   0.37554388E-02
   0.10350   0.37781885E-02
   0.10450   0.37992767E-02
   0.10550   0.38203548E-02
   0.10650   0.38428472E-02
   0.10750   0.38677200E-02
   0.10850   0.38953742E-02
   0.10950   0.39256597E-02
   0.11050   0.39579775E-02
   0.11150   0.39914502E-02
   0.11250   0.40251142E-02
   0.11350   0.40581096E-02
   0.11450   0.40898318E-02
   0.11550   0.41200202E-02
   0.11650   0.41487762E-02
   0.11750   0.41765133E-02
   0.11850   0.42038588E-02
   0.11950   0.42315256E-02
   0.12050   0.42601922E-02
   0.12150   0.42903945E-02
   0.12250   0.43224650E-02
   0.12350   0.43565030E-02
   0.12450   0.43923915E-02
   0.12550   0.44298451E-02
   0.12650   0.44684825E-02
   0.12750   0.45079091E-02
   0.12850   0.45477981E-02
   0.12950   0.45879534E-02
   0.13050   0.46283510E-02
   0.13150   0.46691508E-02
   0.13250   0.47106761E-02
   0.13350   0.47533731E-02
   0.13450   0.47977525E-02
   0.13550   0.48443279E-02
   0.13650   0.48935576E-02
   0.13750   0.49458016E-02
   0.13850   0.50012930E-02
   0.13950   0.50601354E-02
   0.14050   0.51223147E-02
   0.14150   0.51877298E-02
   0.14250   0.52562375E-02
   0.14350   0.53276960E-02
   0.14450   0.54020151E-02
   0.14550   0.54791863E-02
   0.14650   0.55593094E-02
   0.14750   0.56425929E-02
   0.14850   0.57293414E-02
   0.14950   0.58199223E-02
   0.15050   0.59147244E-02
   0.15150   0.60141082E-02
   0.15250   0.61183567E-02
   0.15350   0.62276321E-02
   0.15450   0.63419458E-02
   0.15550   0.64611402E-02
   0.15650   0.65848907E-02
   0.15750   0.67127212E-02
   0.15850   0.68440386E-02
   0.15950   0.69781733E-02
   0.16050   0.71144300E-02
   0.16150   0.72521330E-02
   0.16250   0.73906677E-02
   0.16350   0.75295065E-02
   0.16450   0.76682204E-02
   0.16550   0.78064683E-02
   0.16650   0.79439748E-02
   0.16750   0.80804918E-02
   0.16850   0.82157571E-02
   0.16950   0.83494475E-02
   0.17050   0.84811421E-02
   0.17150   0.86103017E-02
   0.17250   0.87362509E-02
   0.17350   0.88581694E-02
   0.17450   0.89749899E-02
   0.17550   0.90849046E-02
   0.17650   0.91863293E-02
   0.17750   0.92811231E-02
   0.17850   0.93703233E-02
   0.17950   0.94541330E-02
   0.18050   0.95326751E-02
   0.18150   0.96060839E-02
   0.18250   0.96744923E-02
   0.18350   0.97380187E-02
   0.18450   0.97967545E-02
   0.18550   0.98507516E-02
   0.18650   0.99000167E-02
   0.18750   0.99445134E-02
   0.18850   0.99841589E-02
   0.18950   0.10018833E-01
   0.19050   0.10048383E-01
   0.19150   0.10072630E-01
   0.19250   0.10091375E-01
   0.19350   0.10104409E-01
   0.19450   0.10111515E-01
   0.19550   0.10112466E-01
   0.19650   0.10107029E-01
   0.19750   0.10094958E-01
   0.19850   0.10075991E-01
   0.19950   0.10049837E-01
   0.20050   0.10016170E-01
   0.20150   0.99746194E-02
   0.20250   0.99247564E-02
   0.20350   0.98660905E-02
   0.20450   0.97980574E-02
   0.20550   0.97200163E-02
   0.20650   0.96312445E-02
   0.20750   0.95309345E-02
   0.20850   0.94181877E-02
   0.20950   0.92920018E-02
   0.21050   0.91512566E-02
   0.21150   0.89946641E-02
   0.21250   0.88206902E-02
   0.21350   0.86273765E-02
   0.21450   0.84119653E-02
   0.21550   0.81700450E-02
   0.21650   0.78937514E-02
   0.21750   0.75772530E-02
   0.21850   0.72752186E-02
   0.21950   0.70414240E-02
   0.22050   0.68670325E-02
   0.22150   0.67438763E-02
   0.22250   0.66689532E-02
   0.22350   0.66417297E-02
   0.22450   0.66629807E-02
   0.22550   0.67343037E-02
   0.22650   0.68578897E-02
   0.22750   0.70363940E-02
   0.22850   0.72728507E-02
   0.22950   0.75705866E-02
   0.23050   0.79331314E-02
   0.23150   0.83641065E-02
   0.23250   0.88670887E-02
   0.23350   0.94454540E-02
   0.23450   0.10102248E-01
   0.23550   0.10840246E-01
   0.23650   0.11661437E-01
   0.23750   0.12566592E-01
   0.23850   0.13555349E-01
   0.23950   0.14626075E-01
   0.24050   0.15775746E-01
   0.24150   0.16999898E-01
   0.24250   0.18292638E-01
   0.24350   0.19646719E-01
   0.24450   0.21053687E-01
   0.24550   0.22504078E-01
   0.24650   0.23987684E-01
   0.24750   0.25493849E-01
   0.24850   0.27011797E-01
   0.24950   0.28530981E-01
   0.25050   0.30041430E-01
   0.25150   0.31534087E-01
   0.25250   0.33001106E-01
   0.25350   0.34436159E-01
   0.25450   0.35834648E-01
   0.25550   0.37193909E-01
   0.25650   0.38513374E-01
   0.25750   0.39794650E-01
   0.25850   0.41041605E-01
   0.25950   0.42260367E-01
   0.26050   0.43459330E-01
   0.26150   0.44649106E-01
   0.26250   0.45842469E-01
   0.26350   0.47054276E-01
   0.26450   0.48301414E-01
   0.26550   0.49602699E-01
   0.26650   0.50978810E-01
   0.26750   0.52452240E-01
   0.26850   0.54047238E-01
   0.26950   0.55789776E-01
   0.27050   0.57707511E-01
   0.27150   0.59829783E-01
   0.27250   0.62187579E-01
   0.27350   0.64813502E-01
   0.27450   0.67741729E-01
   0.27550   0.71007930E-01
   0.27650   0.74649125E-01
   0.27750   0.78703515E-01
   0.27850   0.83210245E-01
   0.27950   0.88209033E-01
   0.28050   0.93739800E-01
   0.28150   0.99842146E-01
   0.28250   0.10655478E+00
   0.28350   0.11391483E+00
   0.28450   0.12195715E+00
   0.28550   0.13071354E+00
   0.28650   0.14021191E+00
   0.28750   0.15047550E+00
   0.28850   0.16152212E+00
   0.28950   0.17336340E+00
   0.29050   0.18600424E+00
   0.29150   0.19944213E+00
   0.29250   0.21366701E+00
   0.29350   0.22866082E+00
   0.29450   0.24439763E+00
   0.29550   0.26084358E+00
   0.29650   0.27795711E+00
   0.29750   0.29568908E+00
   0.29850   0.31398296E+00
   0.29950   0.33278245E+00
   0.30050   0.35203603E+00
   0.30150   0.37167659E+00
   0.30250   0.39163259E+00
   0.30350   0.41183197E+00
   0.30450   0.43220249E+00
   0.30550   0.45267212E+00
   0.30650   0.47316980E+00
   0.30750   0.49362600E+00
   0.30850   0.51397347E+00
   0.30950   0.53414762E+00
   0.31050   0.55408692E+00
   0.31150   0.57373357E+00
   0.31250   0.59303319E+00
   0.31350   0.61193544E+00
   0.31450   0.63039392E+00
   0.31550   0.64836603E+00
   0.31650   0.66581321E+00
   0.31750   0.68270040E+00
   0.31850   0.69899637E+00
   0.31950   0.71467298E+00
   0.32050   0.72970533E+00
   0.32150   0.74407113E+00
   0.32250   0.75775081E+00
   0.32350   0.77072686E+00
   0.32450   0.78298372E+00
   0.32550   0.79450732E+00
   0.32650   0.80528480E+00
   0.32750   0.81530428E+00
   0.32850   0.82455426E+00
   0.32950   0.83302355E+00
   0.33050   0.84070063E+00
   0.33150   0.84757328E+00
   0.33250   0.85362816E+00
   0.33350   0.85885000E+00
   0.33450   0.86322117E+00
   0.33550   0.86672014E+00
   0.33650   0.86932045E+00
   0.33750   0.87098867E+00
   0.33850   0.87168115E+00
   0.33950   0.87133992E+00
   0.34050   0.86988521E+00
   0.34150   0.86720443E+00
   0.34250   0.86313301E+00
   0.34350   0.85742217E+00
   0.34450   0.84968072E+00
   0.34550   0.83926743E+00
   0.34650   0.82508188E+00
   0.34750   0.80513811E+00
   0.34850   0.77565658E+00
   0.34950   0.72908580E+00
   0.35050   0.65007752E+00
   0.35150   0.51124793E+00
   0.35250   0.29956156E+00
   0.35350   0.13553214E+00
   0.35450   0.15159330E+00
   0.35550   0.26708013E+00
   0.35650   0.37163675E+00
   0.35750   0.43625811E+00
   0.35850   0.47010946E+00
   0.35950   0.48402360E+00
   0.36050   0.48500299E+00
   0.36150   0.47754759E+00
   0.36250   0.46724516E+00
   0.36350   0.46432862E+00
   0.36450   0.46757424E+00
   0.36550   0.47264662E+00
   0.36650   0.47858086E+00
   0.36750   0.48523331E+00
   0.36850   0.49261415E+00
   0.36950   0.50075358E+00
   0.37050   0.50967252E+00
   0.37150   0.51937836E+00
   0.37250   0.52986783E+00
   0.37350   0.54113108E+00
   0.37450   0.55315650E+00
   0.37550   0.56593466E+00
   0.37650   0.57946169E+00
   0.37750   0.59374142E+00
   0.37850   0.60878676E+00
   0.37950   0.62461942E+00
   0.38050   0.64127117E+00
   0.38150   0.65877843E+00
   0.38250   0.67682028E+00
   0.38350   0.69401902E+00
   0.38450   0.70835423E+00
   0.38550   0.71474612E+00
   0.38650   0.69692135E+00
   0.38750   0.59266156E+00
   0.38850   0.34801000E+00
   0.38950   0.69352853E+00
   0.39050   0.82881039E+00
   0.39150   0.77466184E+00
   0.39250   0.63149637E+00
   0.39350   0.48991945E+00
   0.39450   0.24649665E+00
   0.39550   0.22617868E+00
   0.39650   0.28565618E+00
   0.39750   0.34777001E+00
   0.39850   0.40162608E+00
   0.39950   0.44732419E+00
   0.40050   0.48690274E+00
   0.40150   0.52277571E+00
   0.40250   0.55781704E+00
   0.40350   0.59638393E+00
   0.40450   0.64861244E+00
   0.40550   0.73732907E+00
   0.40650   0.49016711E+00
   0.40750   0.60761410E+00
   0.40850   0.65168858E+00
   0.40950   0.66241866E+00
   0.41050   0.49116203E+00
   0.41150   0.40614331E+00
   0.41250   0.52274221E+00
   0.41350   0.38475084E+00
   0.41450   0.26733291E+00
   0.41550   0.23478800E+00
   0.41650   0.23306179E+00
   0.41750   0.24862885E+00
   0.41850   0.26799807E+00
   0.41950   0.28971371E+00
   0.42050   0.31120166E+00
   0.42150   0.32692838E+00
   0.42250   0.33705798E+00
   0.42350   0.34535390E+00
   0.42450   0.35291234E+00
   0.42550   0.35711434E+00
   0.42650   0.35615504E+00
   0.42750   0.35159487E+00
   0.42850   0.34657869E+00
   0.42950   0.34287912E+00
   0.43050   0.34004205E+00
   0.43150   0.33693248E+00
   0.43250   0.33338958E+00
   0.43350   0.33047056E+00
   0.43450   0.32955649E+00
   0.43550   0.33135441E+00
   0.43650   0.33560660E+00
   0.43750   0.34152731E+00
   0.43850   0.34840724E+00
   0.43950   0.35592771E+00
   0.44050   0.36411816E+00
   0.44150   0.37312716E+00
   0.44250   0.38300440E+00
   0.44350   0.39361027E+00
   0.44450   0.40465775E+00
   0.44550   0.41581833E+00
   0.44650   0.42681953E+00
   0.44750   0.43750072E+00
   0.44850   0.44782984E+00
   0.44950   0.45789358E+00
   0.45050   0.46786830E+00
   0.45150   0.47797808E+00
   0.45250   0.48844761E+00
   0.45350   0.49946296E+00
   0.45450   0.51115161E+00
   0.45550   0.52358550E+00
   0.45650   0.53680271E+00
   0.45750   0.55083585E+00
   0.45850   0.56573433E+00
   0.45950   0.58157063E+00
   0.46050   0.59842736E+00
   0.46150   0.61636996E+00
   0.46250   0.63541567E+00
   0.46350   0.65550900E+00
   0.46450   0.67651236E+00
   0.46550   0.69821393E+00
   0.46650   0.72034651E+00
   0.46750   0.74261081E+00
   0.46850   0.76469249E+00
   0.46950   0.78626913E+00
   0.47050   0.80700755E+00
   0.47150   0.82655543E+00
   0.47250   0.84453326E+00
   0.47350   0.86053109E+00
   0.47450   0.87410951E+00
   0.47550   0.88480115E+00
   0.47650   0.89210939E+00
   0.47750   0.89549953E+00
   0.47850   0.89438593E+00
   0.47950   0.88812149E+00
   0.48050   0.87600225E+00
   0.48150   0.85729772E+00
   0.48250   0.83131593E+00
   0.48350   0.79750496E+00
   0.48450   0.75558841E+00
   0.48550   0.70573032E+00
   0.48650   0.64872783E+00
   0.48750   0.58622938E+00
   0.48850   0.52094859E+00
   0.48950   0.45677438E+00
   0.49050   0.39857790E+00
   0.49150   0.35149392E+00
   0.49250   0.31968400E+00
   0.49350   0.30508080E+00
   0.49450   0.30694568E+00
   0.49550   0.32268634E+00
   0.49650   0.34947076E+00
   0.49750   0.38582957E+00
   0.49850   0.43285537E+00
   0.49950   0.48916003E+00
   0.50050   0.55038446E+00
   0.50150   0.61515009E+00
   0.50250   0.68238318E+00
   0.50350   0.75056189E+00
   0.50450   0.81749159E+00
   0.50550   0.87993342E+00
   0.50650   0.93317723E+00
   0.50750   0.97102064E+00
   0.50850   0.98696870E+00
   0.50950   0.97714812E+00
   0.51050   0.94361514E+00
   0.51150   0.89486557E+00
   0.51250   0.84210044E+00
   0.51350   0.79426873E+00
   0.51450   0.75575286E+00
   0.51550   0.72709727E+00
   0.51650   0.70683014E+00
   0.51750   0.69289899E+00
   0.51850   0.68339902E+00
   0.51950   0.67680579E+00
   0.52050   0.67196393E+00
   0.52150   0.66825241E+00
   0.52250   0.66565818E+00
   0.52350   0.66394079E+00
   0.52450   0.66289049E+00
   0.52550   0.66241926E+00
   0.52650   0.66251951E+00
   0.52750   0.66323912E+00
   0.52850   0.66467160E+00
   0.52950   0.66695815E+00
   0.53050   0.67030364E+00
   0.53150   0.67501450E+00
   0.53250   0.68157679E+00
   0.53350   0.69079959E+00
   0.53450   0.70422393E+00
   0.53550   0.72546101E+00
   0.53650   0.76395315E+00
   0.53750   0.84666979E+00
   0.53850   0.10067734E+01
   0.53950   0.10444447E+01
   0.54050   0.88961321E+00
   0.54150   0.79287106E+00
   0.54250   0.75610036E+00
   0.54350   0.74515724E+00
   0.54450   0.74527574E+00
   0.54550   0.75073260E+00
   0.54650   0.75912899E+00
   0.54750   0.76934880E+00
   0.54850   0.78081489E+00
   0.54950   0.79319280E+00
   0.55050   0.80626118E+00
   0.55150   0.81984758E+00
   0.55250   0.83378863E+00
   0.55350   0.84789258E+00
   0.55450   0.86187840E+00
   0.55550   0.87523139E+00
   0.55650   0.88674676E+00
   0.55750   0.89242911E+00
   0.55850   0.86640406E+00
   0.55950   0.94485748E+00
   0.56050   0.99191815E+00
   0.56150   0.10015411E+01
   0.56250   0.10140033E+01
   0.56350   0.10274018E+01
   0.56450   0.10402888E+01
   0.56550   0.10510677E+01
   0.56650   0.10620819E+01
   0.56750   0.10702051E+01
   0.56850   0.10768517E+01
   0.56950   0.11257820E+01
   0.57050   0.11805800E+01
   0.57150   0.99755228E+00
   0.57250   0.11579089E+01
   0.57350   0.77457064E+00
   0.57450   0.78217477E+00
   0.57550   0.98981446E+00
   0.57650   0.10458927E+01
   0.57750   0.10878426E+01
   0.57850   0.11164505E+01
   0.57950   0.11295640E+01
   0.58050   0.11444155E+01
   0.58150   0.11772022E+01
   0.58250   0.12174665E+01
   0.58350   0.12391129E+01
   0.58450   0.12545391E+01
   0.58550   0.12673523E+01
   0.58650   0.12708442E+01
   0.58750   0.12712719E+01
   0.58850   0.12750826E+01
   0.58950   0.12823603E+01
   0.59050   0.12930377E+01
   0.59150   0.13082677E+01
   0.59250   0.13280007E+01
   0.59350   0.13509904E+01
   0.59450   0.13758216E+01
   0.59550   0.14010811E+01
   0.59650   0.14255434E+01
   0.59750   0.14485098E+01
   0.59850   0.14697084E+01
   0.59950   0.14890267E+01
   0.60050   0.15065095E+01
   0.60150   0.15224466E+01
   0.60250   0.15372372E+01
   0.60350   0.15511436E+01
   0.60450   0.15642571E+01
   0.60550   0.15766569E+01
   0.60650   0.15885148E+01
   0.60750   0.16000271E+01
   0.60850   0.16112527E+01
   0.60950   0.16220206E+01
   0.61050   0.16320112E+01
   0.61150   0.16409273E+01
   0.61250   0.16486111E+01
   0.61350   0.16550572E+01
   0.61450   0.16603609E+01
   0.61550   0.16646534E+01
   0.61650   0.16680510E+01
   0.61750   0.16706319E+01
   0.61850   0.16723959E+01
   0.61950   0.16733916E+01
   0.62050   0.16740284E+01
   0.62150   0.16751317E+01
   0.62250   0.16780541E+01
   0.62350   0.16814293E+01
   0.62450   0.16833407E+01
   0.62550   0.16844019E+01
   0.62650   0.16851665E+01
   0.62750   0.16859164E+01
   0.62850   0.16868057E+01
   0.62950   0.16879516E+01
   0.63050   0.16894788E+01
   0.63150   0.16915261E+01
   0.63250   0.16942265E+01
   0.63350   0.16976761E+01
   0.63450   0.17019070E+01
   0.63550   0.17068800E+01
   0.63650   0.17124966E+01
   0.63750   0.17186285E+01
   0.63850   0.17251489E+01
   0.63950   0.17319558E+01
   0.64050   0.17389814E+01
   0.64150   0.17461874E+01
   0.64250   0.17535523E+01
   0.64350   0.17610551E+01
   0.64450   0.17686642E+01
   0.64550   0.17763318E+01
   0.64650   0.17839967E+01
   0.64750   0.17915922E+01
   0.64850   0.17990557E+01
   0.64950   0.18063366E+01
   0.65050   0.18134006E+01
   0.65150   0.18202296E+01
   0.65250   0.18268187E+01
   0.65350   0.18331721E+01
   0.65450   0.18392991E+01
   0.65550   0.18452120E+01
   0.65650   0.18509250E+01
   0.65750   0.18564544E+01
   0.65850   0.18618194E+01
   0.65950   0.18670433E+01
   0.66050   0.18721524E+01
   0.66150   0.18771762E+01
   0.66250   0.18821449E+01
   0.66350   0.18870888E+01
   0.66450   0.18920358E+01
   0.66550   0.18970118E+01
   0.66650   0.19020388E+01
   0.66750   0.19071368E+01
   0.66850   0.19123223E+01
   0.66950   0.19176085E+01
   0.67050   0.19230036E+01
   0.67150   0.19285072E+01
   0.67250   0.19341038E+01
   0.67350   0.19397483E+01
   0.67450   0.19453254E+01
   0.67550   0.19505010E+01
   0.67650   0.19538229E+01
   0.67750   0.19411577E+01
   0.67850   0.18845325E+01
   0.67950   0.19313350E+01
   0.68050   0.19820837E+01
   0.68150   0.19918175E+01
   0.68250   0.19988086E+01
   0.68350   0.20043757E+01
   0.68450   0.20028107E+01
   0.68550   0.19474233E+01
   0.68650   0.19160935E+01
   0.68750   0.18940371E+01
   0.68850   0.17861829E+01
   0.68950   0.18272084E+01
   0.69050   0.19242506E+01
   0.69150   0.18820847E+01
   0.69250   0.18231912E+01
   0.69350   0.19185641E+01
   0.69450   0.19320741E+01
   0.69550   0.18978369E+01
   0.69650   0.18817259E+01
   0.69750   0.19093623E+01
   0.69850   0.19206305E+01
   0.69950   0.19231473E+01
   0.70050   0.19277211E+01
   0.70150   0.19325294E+01
   0.70250   0.19378417E+01
   0.70350   0.19432534E+01
   0.70450   0.19500136E+01
   0.70550   0.19613926E+01
   0.70650   0.19787982E+01
   0.70750   0.20000861E+01
   0.70850   0.20230377E+01
   0.70950   0.20469558E+01
   0.71050   0.20720644E+01
   0.71150   0.20985603E+01
   0.71250   0.21261873E+01
   0.71350   0.21542192E+01
   0.71450   0.21817327E+01
   0.71550   0.22079029E+01
   0.71650   0.22320986E+01
   0.71750   0.22538631E+01
   0.71850   0.22729437E+01
   0.71950   0.22893553E+01
   0.72050   0.23033662E+01
   0.72150   0.23153784E+01
   0.72250   0.23257961E+01
   0.72350   0.23349466E+01
   0.72450   0.23430498E+01
   0.72550   0.23502133E+01
   0.72650   0.23564689E+01
   0.72750   0.23618555E+01
   0.72850   0.23665249E+01
   0.72950   0.23708220E+01
   0.73050   0.23753612E+01
   0.73150   0.23813305E+01
   0.73250   0.23911417E+01
   0.73350   0.24037640E+01
   0.73450   0.24155095E+01
   0.73550   0.24261549E+01
   0.73650   0.24359565E+01
   0.73750   0.24450669E+01
   0.73850   0.24536016E+01
   0.73950   0.24616749E+01
   0.74050   0.24693921E+01
   0.74150   0.24768252E+01
   0.74250   0.24839973E+01
   0.74350   0.24908824E+01
   0.74450   0.24974229E+01
   0.74550   0.25035553E+01
   0.74650   0.25092330E+01
   0.74750   0.25144444E+01
   0.74850   0.25192165E+01
   0.74950   0.25236118E+01
   0.75050   0.25277152E+01
   0.75150   0.25316219E+01
   0.75250   0.25354216E+01
   0.75350   0.25391915E+01
   0.75450   0.25429914E+01
   0.75550   0.25468657E+01
   0.75650   0.25508478E+01
   0.75750   0.25549653E+01
   0.75850   0.25592444E+01
   0.75950   0.25637114E+01
   0.76050   0.25683908E+01
   0.76150   0.25733051E+01
   0.76250   0.25784707E+01
   0.76350   0.25838962E+01
   0.76450   0.25895829E+01
   0.76550   0.25955241E+01
   0.76650   0.26017041E+01
   0.76750   0.26080976E+01
   0.76850   0.26146622E+01
   0.76950   0.26213274E+01
   0.77050   0.26279681E+01
   0.77150   0.26343396E+01
   0.77250   0.26398742E+01
   0.77350   0.26427875E+01
   0.77450   0.26338539E+01
   0.77550   0.26204352E+01
   0.77650   0.26561744E+01
   0.77750   0.26922429E+01
   0.77850   0.26967750E+01
   0.77950   0.27010870E+01
   0.78050   0.27043281E+01
   0.78150   0.27050531E+01
   0.78250   0.27006552E+01
   0.78350   0.26879628E+01
   0.78450   0.26694925E+01
   0.78550   0.26251230E+01
   0.78650   0.24733357E+01
   0.78750   0.26200972E+01
   0.78850   0.26605923E+01
   0.78950   0.26491423E+01
   0.79050   0.26314375E+01
   0.79150   0.26316841E+01
   0.79250   0.26707125E+01
   0.79350   0.26819980E+01
   0.79450   0.26741292E+01
   0.79550   0.26544104E+01
   0.79650   0.26316793E+01
   0.79750   0.26359935E+01
   0.79850   0.26837559E+01
   0.79950   0.27391551E+01
   0.80050   0.27783380E+01
   0.80150   0.28058128E+01
   0.80250   0.28287609E+01
   0.80350   0.28471220E+01
   0.80450   0.28603694E+01
   0.80550   0.28712091E+01
   0.80650   0.28828957E+01
   0.80750   0.28984573E+01
   0.80850   0.29178774E+01
   0.80950   0.29349744E+01
   0.81050   0.29445753E+01
   0.81150   0.29470320E+01
   0.81250   0.29449422E+01
   0.81350   0.29411159E+01
   0.81450   0.29382272E+01
   0.81550   0.29383674E+01
   0.81650   0.29419155E+01
   0.81750   0.29470501E+01
   0.81850   0.29514880E+01
   0.81950   0.29543486E+01
   0.82050   0.29561329E+01
   0.82150   0.29577630E+01
   0.82250   0.29597766E+01
   0.82350   0.29620526E+01
   0.82450   0.29641862E+01
   0.82550   0.29665596E+01
   0.82650   0.29704823E+01
   0.82750   0.29739883E+01
   0.82850   0.29762456E+01
   0.82950   0.29778368E+01
   0.83050   0.29792600E+01
   0.83150   0.29807582E+01
   0.83250   0.29823864E+01
   0.83350   0.29841177E+01
   0.83450   0.29859231E+01
   0.83550   0.29878006E+01
   0.83650   0.29897747E+01
   0.83750   0.29918842E+01
   0.83850   0.29941766E+01
   0.83950   0.29967091E+01
   0.84050   0.29995580E+01
   0.84150   0.30028269E+01
   0.84250   0.30066807E+01
   0.84350   0.30114322E+01
   0.84450   0.30171983E+01
   0.84550   0.30237172E+01
   0.84650   0.30307906E+01
   0.84750   0.30381737E+01
   0.84850   0.30453777E+01
   0.84950   0.30521870E+01
   0.85050   0.30585501E+01
   0.85150   0.30642452E+01
   0.85250   0.30688267E+01
   0.85350   0.30708551E+01
   0.85450   0.30613456E+01
   0.85550   0.30001857E+01
   0.85650   0.30834377E+01
   0.85750   0.30976634E+01
   0.85850   0.31047213E+01
   0.85950   0.31106396E+01
   0.86050   0.31159704E+01
   0.86150   0.31201653E+01
   0.86250   0.31214662E+01
   0.86350   0.31151731E+01
   0.86450   0.30917437E+01
   0.86550   0.30704546E+01
   0.86650   0.30964820E+01
   0.86750   0.31110728E+01
   0.86850   0.30841577E+01
   0.86950   0.30581903E+01
   0.87050   0.31019621E+01
   0.87150   0.31254027E+01
   0.87250   0.31324320E+01
   0.87350   0.31277459E+01
   0.87450   0.31274507E+01
   0.87550   0.31413941E+01
   0.87650   0.31408856E+01
   0.87750   0.31303501E+01
   0.87850   0.31359127E+01
   0.87950   0.31346614E+01
   0.88050   0.31178789E+01
   0.88150   0.31058373E+01
   0.88250   0.31077828E+01
   0.88350   0.31204481E+01
   0.88450   0.31374087E+01
   0.88550   0.31472061E+01
   0.88650   0.31450348E+01
   0.88750   0.31374283E+01
   0.88850   0.31318252E+01
   0.88950   0.31290441E+01
   0.89050   0.31207819E+01
   0.89150   0.31047347E+01
   0.89250   0.30864389E+01
   0.89350   0.30674927E+01
   0.89450   0.30497289E+01
   0.89550   0.30360141E+01
   0.89650   0.30278699E+01
   0.89750   0.30243134E+01
   0.89850   0.30223174E+01
   0.89950   0.30192866E+01
   0.90050   0.30157769E+01
   0.90150   0.30145779E+01
   0.90250   0.30138016E+01
   0.90350   0.30122814E+01
   0.90450   0.30107803E+01
   0.90550   0.30105438E+01
   0.90650   0.30125601E+01
   0.90750   0.30172744E+01
   0.90850   0.30244637E+01
   0.90950   0.30330584E+01
   0.91050   0.30410163E+01
   0.91150   0.30457845E+01
   0.91250   0.30455070E+01
   0.91350   0.30399802E+01
   0.91450   0.30303969E+01
   0.91550   0.30183527E+01
   0.91650   0.30050919E+01
   0.91750   0.29912746E+01
   0.91850   0.29770002E+01
   0.91950   0.29616020E+01
   0.92050   0.29422810E+01
   0.92150   0.29245296E+01
   0.92250   0.29242413E+01
   0.92350   0.29170802E+01
   0.92450   0.29077914E+01
   0.92550   0.28981943E+01
   0.92650   0.28880558E+01
   0.92750   0.28762023E+01
   0.92850   0.28609650E+01
   0.92950   0.28410316E+01
   0.93050   0.28162634E+01
   0.93150   0.27878578E+01
   0.93250   0.27599425E+01
   0.93350   0.27426274E+01
   0.93450   0.27288897E+01
   0.93550   0.27067277E+01
   0.93650   0.26809595E+01
   0.93750   0.26505620E+01
   0.93850   0.26149130E+01
   0.93950   0.25807743E+01
   0.94050   0.25496368E+01
   0.94150   0.25199323E+01
   0.94250   0.24913623E+01
   0.94350   0.24645555E+01
   0.94450   0.24402449E+01
   0.94550   0.24186716E+01
   0.94650   0.23993676E+01
   0.94750   0.23818715E+01
   0.94850   0.23650949E+01
   0.94950   0.23458400E+01
   0.95050   0.23223343E+01
   0.95150   0.23088500E+01
   0.95250   0.23085763E+01
   0.95350   0.23135457E+01
   0.95450   0.23225949E+01
   0.95550   0.23290820E+01
   0.95650   0.23303485E+01
   0.95750   0.23275461E+01
   0.95850   0.23219206E+01
   0.95950   0.23138809E+01
   0.96050   0.23030932E+01
   0.96150   0.22892647E+01
   0.96250   0.22722173E+01
   0.96350   0.22515771E+01
   0.96450   0.22267995E+01
   0.96550   0.21974893E+01
   0.96650   0.21635404E+01
   0.96750   0.21249406E+01
   0.96850   0.20816572E+01
   0.96950   0.20338550E+01
   0.97050   0.19821583E+01
   0.97150   0.19276091E+01
   0.97250   0.18712534E+01
   0.97350   0.18133707E+01
   0.97450   0.17526995E+01
   0.97550   0.16894634E+01
   0.97650   0.16264646E+01
   0.97750   0.15618893E+01
   0.97850   0.14944570E+01
   0.97950   0.14244332E+01
   0.98050   0.13523585E+01
   0.98150   0.12786903E+01
   0.98250   0.12039698E+01
   0.98350   0.11289806E+01
   0.98450   0.10546756E+01
   0.98550   0.98219860E+00
   0.98650   0.91296989E+00
   0.98750   0.84840882E+00
   0.98850   0.78951621E+00
   0.98950   0.73669380E+00
   0.99050   0.69007468E+00
   0.99150   0.64901835E+00
   0.99250   0.61179096E+00
   0.99350   0.57750362E+00
   0.99450   0.54866678E+00
   0.99550   0.52722448E+00
   0.99650   0.51212084E+00
   0.99750   0.50331765E+00
   0.99850   0.49992186E+00
   0.99950   0.49615696E+00
