# Transmission, k-averaged
# Date: 2021-05-13
#   E [eV]           T [G0]
   0.00050   0.82664698E-03
   0.00150   0.27463168E-02
   0.00250   0.72313024E-03
   0.00350   0.30852453E-03
   0.00450   0.23173905E-03
   0.00550   0.21691641E-03
   0.00650   0.20734718E-03
   0.00750   0.32115250E-03
   0.00850   0.37943848E-03
   0.00950   0.48476498E-03
   0.01050   0.11088961E-02
   0.01150   0.87868178E-03
   0.01250   0.13133172E-02
   0.01350   0.43622525E-02
   0.01450   0.24589377E-02
   0.01550   0.22588912E-02
   0.01650   0.80313161E-02
   0.01750   0.12623185E-01
   0.01850   0.35788212E-02
   0.01950   0.40351008E-02
   0.02050   0.20537242E-01
   0.02150   0.10341409E-01
   0.02250   0.27433622E-02
   0.02350   0.23070737E-02
   0.02450   0.39155185E-02
   0.02550   0.24302143E-02
   0.02650   0.68337918E-03
   0.02750   0.29487858E-03
   0.02850   0.15035603E-03
   0.02950   0.57557132E-04
   0.03050   0.13441773E-04
   0.03150   0.18422188E-05
   0.03250   0.94694038E-07
   0.03350   0.59757454E-07
   0.03450   0.10278715E-05
   0.03550   0.63741595E-05
   0.03650   0.22094409E-04
   0.03750   0.51091618E-04
   0.03850   0.91696646E-04
   0.03950   0.15745855E-03
   0.04050   0.29646710E-03
   0.04150   0.59923978E-03
   0.04250   0.97003294E-03
   0.04350   0.10614593E-02
   0.04450   0.11852856E-02
   0.04550   0.17152285E-02
   0.04650   0.27109953E-02
   0.04750   0.42608585E-02
   0.04850   0.58055436E-02
   0.04950   0.60273269E-02
   0.05050   0.53242515E-02
   0.05150   0.47912970E-02
   0.05250   0.47667492E-02
   0.05350   0.53217299E-02
   0.05450   0.65452042E-02
   0.05550   0.83943075E-02
   0.05650   0.10150753E-01
   0.05750   0.10570697E-01
   0.05850   0.97032916E-02
   0.05950   0.86878920E-02
   0.06050   0.81802662E-02
   0.06150   0.83400328E-02
   0.06250   0.92083039E-02
   0.06350   0.10781167E-01
   0.06450   0.12798727E-01
   0.06550   0.14448491E-01
   0.06650   0.14795369E-01
   0.06750   0.13923812E-01
   0.06850   0.12744771E-01
   0.06950   0.11945107E-01
   0.07050   0.11778464E-01
   0.07150   0.12300005E-01
   0.07250   0.13486296E-01
   0.07350   0.15170331E-01
   0.07450   0.16871784E-01
   0.07550   0.17828684E-01
   0.07650   0.17575365E-01
   0.07750   0.16444042E-01
   0.07850   0.15157469E-01
   0.07950   0.14232357E-01
   0.08050   0.13882898E-01
   0.08150   0.14157510E-01
   0.08250   0.15016188E-01
   0.08350   0.16287923E-01
   0.08450   0.17554956E-01
   0.08550   0.18170942E-01
   0.08650   0.17684227E-01
   0.08750   0.16312199E-01
   0.08850   0.14722809E-01
   0.08950   0.13478088E-01
   0.09050   0.12853913E-01
   0.09150   0.12897764E-01
   0.09250   0.13200213E-01
   0.09350   0.13219804E-01
   0.09450   0.12800104E-01
   0.09550   0.11898926E-01
   0.09650   0.10840030E-01
   0.09750   0.10078704E-01
   0.09850   0.99203149E-02
   0.09950   0.10515880E-01
   0.10050   0.11929950E-01
   0.10150   0.14095031E-01
   0.10250   0.16677812E-01
   0.10350   0.19119238E-01
   0.10450   0.21018909E-01
   0.10550   0.22406880E-01
   0.10650   0.23533572E-01
   0.10750   0.24559697E-01
   0.10850   0.25469201E-01
   0.10950   0.26147485E-01
   0.11050   0.26495567E-01
   0.11150   0.26498256E-01
   0.11250   0.26220147E-01
   0.11350   0.25758771E-01
   0.11450   0.25200669E-01
   0.11550   0.24602167E-01
   0.11650   0.23990994E-01
   0.11750   0.23376778E-01
   0.11850   0.22761701E-01
   0.11950   0.22147471E-01
   0.12050   0.21538151E-01
   0.12150   0.20939948E-01
   0.12250   0.20359563E-01
   0.12350   0.19802449E-01
   0.12450   0.19271733E-01
   0.12550   0.18767990E-01
   0.12650   0.18289747E-01
   0.12750   0.17834354E-01
   0.12850   0.17398922E-01
   0.12950   0.16981080E-01
   0.13050   0.16579401E-01
   0.13150   0.16193472E-01
   0.13250   0.15823683E-01
   0.13350   0.15470824E-01
   0.13450   0.15135665E-01
   0.13550   0.14818589E-01
   0.13650   0.14519369E-01
   0.13750   0.14237123E-01
   0.13850   0.13970408E-01
   0.13950   0.13717432E-01
   0.14050   0.13476320E-01
   0.14150   0.13245378E-01
   0.14250   0.13023304E-01
   0.14350   0.12809312E-01
   0.14450   0.12603154E-01
   0.14550   0.12405043E-01
   0.14650   0.12215500E-01
   0.14750   0.12035165E-01
   0.14850   0.11864611E-01
   0.14950   0.11704179E-01
   0.15050   0.11553880E-01
   0.15150   0.11413355E-01
   0.15250   0.11281907E-01
   0.15350   0.11158586E-01
   0.15450   0.11042316E-01
   0.15550   0.10932037E-01
   0.15650   0.10826839E-01
   0.15750   0.10726076E-01
   0.15850   0.10629419E-01
   0.15950   0.10536875E-01
   0.16050   0.10448728E-01
   0.16150   0.10365458E-01
   0.16250   0.10287607E-01
   0.16350   0.10215644E-01
   0.16450   0.10149824E-01
   0.16550   0.10090072E-01
   0.16650   0.10035869E-01
   0.16750   0.99861585E-02
   0.16850   0.99392235E-02
   0.16950   0.98924516E-02
   0.17050   0.98418286E-02
   0.17150   0.97806621E-02
   0.17250   0.96961921E-02
   0.17350   0.95592113E-02
   0.17450   0.92866812E-02
   0.17550   0.86405100E-02
   0.17650   0.76256027E-02
   0.17750   0.67788796E-02
   0.17850   0.61455849E-02
   0.17950   0.56532221E-02
   0.18050   0.52556433E-02
   0.18150   0.49254950E-02
   0.18250   0.46455916E-02
   0.18350   0.44044815E-02
   0.18450   0.41941558E-02
   0.18550   0.40088017E-02
   0.18650   0.38440702E-02
   0.18750   0.36966330E-02
   0.18850   0.35638930E-02
   0.18950   0.34437899E-02
   0.19050   0.33346654E-02
   0.19150   0.32351641E-02
   0.19250   0.31441592E-02
   0.19350   0.30606957E-02
   0.19450   0.29839440E-02
   0.19550   0.29131635E-02
   0.19650   0.28476720E-02
   0.19750   0.27868166E-02
   0.19850   0.27299495E-02
   0.19950   0.26764020E-02
   0.20050   0.26254535E-02
   0.20150   0.25762939E-02
   0.20250   0.25279704E-02
   0.20350   0.24793067E-02
   0.20450   0.24287803E-02
   0.20550   0.23743194E-02
   0.20650   0.23129683E-02
   0.20750   0.22403134E-02
   0.20850   0.21494792E-02
   0.20950   0.20293386E-02
   0.21050   0.18613952E-02
   0.21150   0.16150110E-02
   0.21250   0.12447325E-02
   0.21350   0.71856979E-03
   0.21450   0.17753606E-03
   0.21550   0.10567881E-05
   0.21650   0.24432669E-04
   0.21750   0.25843253E-03
   0.21850   0.46163664E-03
   0.21950   0.58112195E-03
   0.22050   0.67416189E-03
   0.22150   0.75517170E-03
   0.22250   0.82919706E-03
   0.22350   0.89900295E-03
   0.22450   0.96652634E-03
   0.22550   0.10333369E-02
   0.22650   0.11008538E-02
   0.22750   0.11704884E-02
   0.22850   0.12437728E-02
   0.22950   0.13225046E-02
   0.23050   0.14089399E-02
   0.23150   0.15060324E-02
   0.23250   0.16174791E-02
   0.23350   0.17450619E-02
   0.23450   0.18623191E-02
   0.23550   0.18802924E-02
   0.23650   0.18347914E-02
   0.23750   0.17816192E-02
   0.23850   0.17315651E-02
   0.23950   0.16858734E-02
   0.24050   0.16442137E-02
   0.24150   0.16060491E-02
   0.24250   0.15708944E-02
   0.24350   0.15383527E-02
   0.24450   0.15081062E-02
   0.24550   0.14799001E-02
   0.24650   0.14535272E-02
   0.24750   0.14288172E-02
   0.24850   0.14056267E-02
   0.24950   0.13838344E-02
   0.25050   0.13633355E-02
   0.25150   0.13440386E-02
   0.25250   0.13258638E-02
   0.25350   0.13087402E-02
   0.25450   0.12926057E-02
   0.25550   0.12774052E-02
   0.25650   0.12630903E-02
   0.25750   0.12496186E-02
   0.25850   0.12369533E-02
   0.25950   0.12250622E-02
   0.26050   0.12139177E-02
   0.26150   0.12034959E-02
   0.26250   0.11937759E-02
   0.26350   0.11847398E-02
   0.26450   0.11763715E-02
   0.26550   0.11686569E-02
   0.26650   0.11615832E-02
   0.26750   0.11551386E-02
   0.26850   0.11493122E-02
   0.26950   0.11440939E-02
   0.27050   0.11394746E-02
   0.27150   0.11354454E-02
   0.27250   0.11319990E-02
   0.27350   0.11291290E-02
   0.27450   0.11268301E-02
   0.27550   0.11250989E-02
   0.27650   0.11239336E-02
   0.27750   0.11233342E-02
   0.27850   0.11233026E-02
   0.27950   0.11238427E-02
   0.28050   0.11249605E-02
   0.28150   0.11266635E-02
   0.28250   0.11289611E-02
   0.28350   0.11318639E-02
   0.28450   0.11353834E-02
   0.28550   0.11395311E-02
   0.28650   0.11443183E-02
   0.28750   0.11497538E-02
   0.28850   0.11558423E-02
   0.28950   0.11625801E-02
   0.29050   0.11699481E-02
   0.29150   0.11778986E-02
   0.29250   0.11863287E-02
   0.29350   0.11950252E-02
   0.29450   0.12035380E-02
   0.29550   0.12108578E-02
   0.29650   0.12144608E-02
   0.29750   0.12068838E-02
   0.29850   0.11625844E-02
   0.29950   0.10463096E-02
   0.30050   0.92424877E-03
   0.30150   0.83115522E-03
   0.30250   0.75948640E-03
   0.30350   0.70221879E-03
   0.30450   0.65507501E-03
   0.30550   0.61538973E-03
   0.30650   0.58141042E-03
   0.30750   0.55192754E-03
   0.30850   0.52607205E-03
   0.30950   0.50319923E-03
   0.31050   0.48281753E-03
   0.31150   0.46454393E-03
   0.31250   0.44807413E-03
   0.31350   0.43316244E-03
   0.31450   0.41960765E-03
   0.31550   0.40724283E-03
   0.31650   0.39592790E-03
   0.31750   0.38554409E-03
   0.31850   0.37598948E-03
   0.31950   0.36717585E-03
   0.32050   0.35902602E-03
   0.32150   0.35147162E-03
   0.32250   0.34445146E-03
   0.32350   0.33790988E-03
   0.32450   0.33179569E-03
   0.32550   0.32606075E-03
   0.32650   0.32065911E-03
   0.32750   0.31554574E-03
   0.32850   0.31067556E-03
   0.32950   0.30600221E-03
   0.33050   0.30147677E-03
   0.33150   0.29704624E-03
   0.33250   0.29265168E-03
   0.33350   0.28822621E-03
   0.33450   0.28369229E-03
   0.33550   0.27895870E-03
   0.33650   0.27391678E-03
   0.33750   0.26843610E-03
   0.33850   0.26235954E-03
   0.33950   0.25549863E-03
   0.34050   0.24762959E-03
   0.34150   0.23849258E-03
   0.34250   0.22779804E-03
   0.34350   0.21524665E-03
   0.34450   0.20057322E-03
   0.34550   0.18362691E-03
   0.34650   0.16449697E-03
   0.34750   0.14367323E-03
   0.34850   0.12218409E-03
   0.34950   0.10159381E-03
   0.35050   0.83735089E-04
   0.35150   0.70208233E-04
   0.35250   0.61937848E-04
   0.35350   0.59097794E-04
   0.35450   0.61342893E-04
   0.35550   0.68024849E-04
   0.35650   0.78274985E-04
   0.35750   0.91071503E-04
   0.35850   0.10534398E-03
   0.35950   0.12002530E-03
   0.36050   0.13388036E-03
   0.36150   0.14463617E-03
   0.36250   0.14631711E-03
   0.36350   0.13753070E-03
   0.36450   0.13169492E-03
   0.36550   0.13067742E-03
   0.36650   0.13290490E-03
   0.36750   0.13743494E-03
   0.36850   0.14379267E-03
   0.36950   0.15175554E-03
   0.37050   0.16124858E-03
   0.37150   0.17229682E-03
   0.37250   0.18500589E-03
   0.37350   0.19955954E-03
   0.37450   0.21622996E-03
   0.37550   0.23540226E-03
   0.37650   0.25761823E-03
   0.37750   0.28365184E-03
   0.37850   0.31463531E-03
   0.37950   0.35224488E-03
   0.38050   0.39867483E-03
   0.38150   0.45279309E-03
   0.38250   0.48858894E-03
   0.38350   0.49210363E-03
   0.38450   0.48641683E-03
   0.38550   0.47949594E-03
   0.38650   0.47288241E-03
   0.38750   0.46683336E-03
   0.38850   0.46132036E-03
   0.38950   0.45625312E-03
   0.39050   0.45153691E-03
   0.39150   0.44708716E-03
   0.39250   0.44283210E-03
   0.39350   0.43871178E-03
   0.39450   0.43467633E-03
   0.39550   0.43068419E-03
   0.39650   0.42670054E-03
   0.39750   0.42269588E-03
   0.39850   0.41864492E-03
   0.39950   0.41452548E-03
   0.40050   0.41031750E-03
   0.40150   0.40600201E-03
   0.40250   0.40156007E-03
   0.40350   0.39697130E-03
   0.40450   0.39221198E-03
   0.40550   0.38725245E-03
   0.40650   0.38205268E-03
   0.40750   0.37655490E-03
   0.40850   0.37067031E-03
   0.40950   0.36425213E-03
   0.41050   0.35703572E-03
   0.41150   0.34848656E-03
   0.41250   0.33734052E-03
   0.41350   0.32005546E-03
   0.41450   0.29046947E-03
   0.41550   0.25931583E-03
   0.41650   0.23643095E-03
   0.41750   0.21953927E-03
   0.41850   0.20650279E-03
   0.41950   0.19611199E-03
   0.42050   0.18765143E-03
   0.42150   0.18066740E-03
   0.42250   0.17485488E-03
   0.42350   0.16999949E-03
   0.42450   0.16594492E-03
   0.42550   0.16257398E-03
   0.42650   0.15979660E-03
   0.42750   0.15754208E-03
   0.42850   0.15575363E-03
   0.42950   0.15438472E-03
   0.43050   0.15339602E-03
   0.43150   0.15275313E-03
   0.43250   0.15242453E-03
   0.43350   0.15237954E-03
   0.43450   0.15258617E-03
   0.43550   0.15300863E-03
   0.43650   0.15360401E-03
   0.43750   0.15431807E-03
   0.43850   0.15507912E-03
   0.43950   0.15578947E-03
   0.44050   0.15631295E-03
   0.44150   0.15645668E-03
   0.44250   0.15594489E-03
   0.44350   0.15438213E-03
   0.44450   0.15120693E-03
   0.44550   0.14564914E-03
   0.44650   0.13674838E-03
   0.44750   0.12361312E-03
   0.44850   0.10636745E-03
   0.44950   0.88426787E-04
   0.45050   0.79234902E-04
   0.45150   0.91234862E-04
   0.45250   0.12526111E-03
   0.45350   0.15947761E-03
   0.45450   0.16005320E-03
   0.45550   0.11415604E-03
   0.45650   0.64456770E-04
   0.45750   0.51688599E-04
   0.45850   0.65902816E-04
   0.45950   0.87705623E-04
   0.46050   0.10985539E-03
   0.46150   0.13174016E-03
   0.46250   0.15312944E-03
   0.46350   0.22788970E-03
   0.46450   0.18787783E-03
   0.46550   0.19117851E-03
   0.46650   0.17782704E-03
   0.46750   0.18909872E-03
   0.46850   0.24855867E-03
   0.46950   0.34453141E-03
   0.47050   0.47040402E-03
   0.47150   0.61591767E-03
   0.47250   0.76279696E-03
   0.47350   0.89252507E-03
   0.47450   0.10502789E-02
   0.47550   0.14719380E-02
   0.47650   0.14575823E-02
   0.47750   0.52943770E-02
   0.47850   0.11608436E-01
   0.47950   0.10184799E-02
   0.48050   0.25972186E-02
   0.48150   0.23811162E-02
   0.48250   0.13154756E-02
   0.48350   0.16052104E-02
   0.48450   0.18746281E-02
   0.48550   0.18666618E-02
   0.48650   0.16931210E-02
   0.48750   0.14664569E-02
   0.48850   0.12345732E-02
   0.48950   0.10102466E-02
   0.49050   0.80435688E-03
   0.49150   0.62757824E-03
   0.49250   0.48337298E-03
   0.49350   0.36897749E-03
   0.49450   0.28007833E-03
   0.49550   0.21310420E-03
   0.49650   0.16483590E-03
   0.49750   0.13146964E-03
   0.49850   0.10919094E-03
   0.49950   0.97648801E-04
   0.50050   0.94370822E-04
   0.50150   0.95710289E-04
   0.50250   0.99388169E-04
   0.50350   0.10398892E-03
   0.50450   0.10866009E-03
   0.50550   0.11294186E-03
   0.50650   0.11662175E-03
   0.50750   0.11961933E-03
   0.50850   0.12192141E-03
   0.50950   0.12356672E-03
   0.51050   0.12465875E-03
   0.51150   0.12538012E-03
   0.51250   0.12599140E-03
   0.51350   0.12681395E-03
   0.51450   0.12820808E-03
   0.51550   0.13055930E-03
   0.51650   0.13428113E-03
   0.51750   0.13983515E-03
   0.51850   0.14774367E-03
   0.51950   0.15835457E-03
   0.52050   0.16929601E-03
   0.52150   0.16927398E-03
   0.52250   0.16038597E-03
   0.52350   0.15120037E-03
   0.52450   0.14324101E-03
   0.52550   0.13645868E-03
   0.52650   0.13061411E-03
   0.52750   0.12547444E-03
   0.52850   0.12083109E-03
   0.52950   0.11647837E-03
   0.53050   0.11216089E-03
   0.53150   0.10743790E-03
   0.53250   0.10130790E-03
   0.53350   0.92844683E-04
   0.53450   0.85412903E-04
   0.53550   0.80209124E-04
   0.53650   0.76728298E-04
   0.53750   0.75317774E-04
   0.53850   0.77140088E-04
   0.53950   0.83973449E-04
   0.54050   0.97661672E-04
   0.54150   0.11889278E-03
   0.54250   0.14555227E-03
   0.54350   0.17200928E-03
   0.54450   0.19097948E-03
   0.54550   0.19739685E-03
   0.54650   0.19104201E-03
   0.54750   0.17573811E-03
   0.54850   0.15651817E-03
   0.54950   0.13736814E-03
   0.55050   0.12052352E-03
   0.55150   0.10678761E-03
   0.55250   0.96116921E-04
   0.55350   0.88089575E-04
   0.55450   0.82182247E-04
   0.55550   0.77902478E-04
   0.55650   0.74836993E-04
   0.55750   0.72658993E-04
   0.55850   0.71118578E-04
   0.55950   0.70028313E-04
   0.56050   0.69248963E-04
   0.56150   0.68677444E-04
   0.56250   0.68237205E-04
   0.56350   0.67870962E-04
   0.56450   0.67535300E-04
   0.56550   0.67196692E-04
   0.56650   0.66828638E-04
   0.56750   0.66409564E-04
   0.56850   0.65921209E-04
   0.56950   0.65347442E-04
   0.57050   0.64673244E-04
   0.57150   0.63883854E-04
   0.57250   0.62964093E-04
   0.57350   0.61897626E-04
   0.57450   0.60666422E-04
   0.57550   0.59250189E-04
   0.57650   0.57625963E-04
   0.57750   0.55767858E-04
   0.57850   0.53647131E-04
   0.57950   0.51232841E-04
   0.58050   0.48493686E-04
   0.58150   0.45401972E-04
   0.58250   0.41941646E-04
   0.58350   0.38123748E-04
   0.58450   0.34015437E-04
   0.58550   0.29793051E-04
   0.58650   0.25835818E-04
   0.58750   0.22881502E-04
   0.58850   0.22254053E-04
   0.58950   0.26103060E-04
   0.59050   0.37383819E-04
   0.59150   0.58955535E-04
   0.59250   0.91252041E-04
   0.59350   0.12978252E-03
   0.59450   0.16616963E-03
   0.59550   0.19351571E-03
   0.59650   0.21024633E-03
   0.59750   0.21878137E-03
   0.59850   0.22240949E-03
   0.59950   0.22363717E-03
   0.60050   0.22398977E-03
   0.60150   0.22430673E-03
   0.60250   0.22503531E-03
   0.60350   0.22642007E-03
   0.60450   0.22860899E-03
   0.60550   0.23171112E-03
   0.60650   0.23582901E-03
   0.60750   0.24107915E-03
   0.60850   0.24760785E-03
   0.60950   0.25560730E-03
   0.61050   0.26533552E-03
   0.61150   0.27714414E-03
   0.61250   0.29152038E-03
   0.61350   0.30915096E-03
   0.61450   0.33101355E-03
   0.61550   0.35845331E-03
   0.61650   0.39275349E-03
   0.61750   0.42968351E-03
   0.61850   0.43581778E-03
   0.61950   0.40235042E-03
   0.62050   0.36380111E-03
   0.62150   0.32811370E-03
   0.62250   0.29457241E-03
   0.62350   0.26328559E-03
   0.62450   0.23808194E-03
   0.62550   0.23331435E-03
   0.62650   0.28069175E-03
   0.62750   0.32338870E-03
   0.62850   0.30687239E-03
   0.62950   0.27857724E-03
   0.63050   0.25463980E-03
   0.63150   0.23557512E-03
   0.63250   0.22012848E-03
   0.63350   0.20730469E-03
   0.63450   0.19644713E-03
   0.63550   0.18712816E-03
   0.63650   0.17906522E-03
   0.63750   0.17207040E-03
   0.63850   0.16602104E-03
   0.63950   0.16083918E-03
   0.64050   0.15645540E-03
   0.64150   0.15262746E-03
   0.64250   0.14754213E-03
   0.64350   0.12465422E-03
   0.64450   0.79334473E-04
   0.64550   0.10292238E-03
   0.64650   0.11319602E-03
   0.64750   0.11700550E-03
   0.64850   0.11894432E-03
   0.64950   0.12063135E-03
   0.65050   0.12308294E-03
   0.65150   0.12777727E-03
   0.65250   0.13779593E-03
   0.65350   0.14749668E-03
   0.65450   0.96603508E-04
   0.65550   0.87227854E-04
   0.65650   0.95330295E-04
   0.65750   0.11776104E-03
   0.65850   0.20285741E-03
   0.65950   0.74657280E-03
   0.66050   0.12216917E+00
   0.66150   0.56887018E-02
   0.66250   0.78453524E-02
   0.66350   0.20161180E-02
   0.66450   0.15014861E-02
   0.66550   0.21655671E-02
   0.66650   0.23358010E-02
   0.66750   0.20123164E-02
   0.66850   0.15958950E-02
   0.66950   0.12652677E-02
   0.67050   0.10310597E-02
   0.67150   0.87572419E-03
   0.67250   0.77901816E-03
   0.67350   0.71851636E-03
   0.67450   0.67435304E-03
   0.67550   0.63449593E-03
   0.67650   0.59621158E-03
   0.67750   0.56264619E-03
   0.67850   0.53797063E-03
   0.67950   0.52462216E-03
   0.68050   0.52297680E-03
   0.68150   0.53227192E-03
   0.68250   0.55166974E-03
   0.68350   0.58066531E-03
   0.68450   0.61849959E-03
   0.68550   0.66220498E-03
   0.68650   0.69916336E-03
   0.68750   0.68905146E-03
   0.68850   0.63807640E-03
   0.68950   0.59141364E-03
   0.69050   0.55435207E-03
   0.69150   0.52441156E-03
   0.69250   0.49932871E-03
   0.69350   0.47758559E-03
   0.69450   0.45834470E-03
   0.69550   0.44131523E-03
   0.69650   0.42657691E-03
   0.69750   0.41440025E-03
   0.69850   0.40511246E-03
   0.69950   0.39903464E-03
   0.70050   0.39648762E-03
   0.70150   0.39784561E-03
   0.70250   0.40360182E-03
   0.70350   0.41428022E-03
   0.70450   0.42879154E-03
   0.70550   0.43366096E-03
   0.70650   0.41453651E-03
   0.70750   0.38990373E-03
   0.70850   0.36755495E-03
   0.70950   0.34821074E-03
   0.71050   0.33152112E-03
   0.71150   0.31702750E-03
   0.71250   0.30431306E-03
   0.71350   0.29302377E-03
   0.71450   0.28286633E-03
   0.71550   0.27360118E-03
   0.71650   0.26503380E-03
   0.71750   0.25700600E-03
   0.71850   0.24938845E-03
   0.71950   0.24207580E-03
   0.72050   0.23498453E-03
   0.72150   0.22805360E-03
   0.72250   0.22124592E-03
   0.72350   0.21454916E-03
   0.72450   0.20797460E-03
   0.72550   0.20155325E-03
   0.72650   0.19532972E-03
   0.72750   0.18935469E-03
   0.72850   0.18367634E-03
   0.72950   0.17832911E-03
   0.73050   0.17330921E-03
   0.73150   0.16848667E-03
   0.73250   0.16343972E-03
   0.73350   0.15856634E-03
   0.73450   0.15473625E-03
   0.73550   0.15186796E-03
   0.73650   0.14978067E-03
   0.73750   0.14834662E-03
   0.73850   0.14747045E-03
   0.73950   0.14707247E-03
   0.74050   0.14708008E-03
   0.74150   0.14742394E-03
   0.74250   0.14803684E-03
   0.74350   0.14885435E-03
   0.74450   0.14981619E-03
   0.74550   0.15086781E-03
   0.74650   0.15196172E-03
   0.74750   0.15305803E-03
   0.74850   0.15412456E-03
   0.74950   0.15513613E-03
   0.75050   0.15607385E-03
   0.75150   0.15692403E-03
   0.75250   0.15767742E-03
   0.75350   0.15832878E-03
   0.75450   0.15887653E-03
   0.75550   0.15932297E-03
   0.75650   0.15967448E-03
   0.75750   0.15994193E-03
   0.75850   0.16014116E-03
   0.75950   0.16029349E-03
   0.76050   0.16042638E-03
   0.76150   0.16057430E-03
   0.76250   0.16077980E-03
   0.76350   0.16109498E-03
   0.76450   0.16158343E-03
   0.76550   0.16232274E-03
   0.76650   0.16340775E-03
   0.76750   0.16495486E-03
   0.76850   0.16710798E-03
   0.76950   0.17004670E-03
   0.77050   0.17399865E-03
   0.77150   0.17925962E-03
   0.77250   0.18623006E-03
   0.77350   0.19549478E-03
   0.77450   0.20804451E-03
   0.77550   0.22613749E-03
   0.77650   0.25883532E-03
   0.77750   0.42853731E-03
   0.77850   0.64233219E-03
   0.77950   0.38214112E-03
   0.78050   0.40784627E-03
   0.78150   0.46482409E-03
   0.78250   0.52580668E-03
   0.78350   0.60707016E-03
   0.78450   0.79927774E-03
   0.78550   0.12615934E-02
   0.78650   0.14293158E-02
   0.78750   0.12231188E-01
   0.78850   0.39287895E-01
   0.78950   0.16356720E-01
   0.79050   0.30878833E-01
   0.79150   0.12131821E+00
   0.79250   0.56052811E-01
   0.79350   0.20552400E-01
   0.79450   0.11798903E-01
   0.79550   0.85764071E-02
   0.79650   0.73893042E-02
   0.79750   0.64179110E-02
   0.79850   0.52473904E-02
   0.79950   0.42894264E-02
   0.80050   0.36294849E-02
   0.80150   0.32344160E-02
   0.80250   0.30380052E-02
   0.80350   0.29449456E-02
   0.80450   0.28916695E-02
   0.80550   0.28519037E-02
   0.80650   0.28068810E-02
   0.80750   0.27465425E-02
   0.80850   0.26815971E-02
   0.80950   0.26306484E-02
   0.81050   0.26034976E-02
   0.81150   0.26010145E-02
   0.81250   0.26223434E-02
   0.81350   0.26682829E-02
   0.81450   0.27399349E-02
   0.81550   0.28363976E-02
   0.81650   0.29537329E-02
   0.81750   0.30852892E-02
   0.81850   0.32229288E-02
   0.81950   0.33588836E-02
   0.82050   0.34876666E-02
   0.82150   0.36067283E-02
   0.82250   0.37149512E-02
   0.82350   0.38098528E-02
   0.82450   0.38851839E-02
   0.82550   0.39289426E-02
   0.82650   0.39368724E-02
   0.82750   0.39364351E-02
   0.82850   0.39393348E-02
   0.82950   0.39488738E-02
   0.83050   0.39668279E-02
   0.83150   0.39926907E-02
   0.83250   0.40245648E-02
   0.83350   0.40609809E-02
   0.83450   0.41022450E-02
   0.83550   0.41504991E-02
   0.83650   0.42086295E-02
   0.83750   0.42788764E-02
   0.83850   0.43619899E-02
   0.83950   0.44572791E-02
   0.84050   0.45630909E-02
   0.84150   0.46751304E-02
   0.84250   0.47684489E-02
   0.84350   0.47435951E-02
   0.84450   0.46184957E-02
   0.84550   0.45105186E-02
   0.84650   0.44349334E-02
   0.84750   0.43842779E-02
   0.84850   0.43488205E-02
   0.84950   0.43300521E-02
   0.85050   0.43290379E-02
   0.85150   0.43436838E-02
   0.85250   0.43722857E-02
   0.85350   0.44136522E-02
   0.85450   0.44668596E-02
   0.85550   0.45310906E-02
   0.85650   0.46055801E-02
   0.85750   0.46896250E-02
   0.85850   0.47826394E-02
   0.85950   0.48842262E-02
   0.86050   0.49942513E-02
   0.86150   0.51129223E-02
   0.86250   0.52408683E-02
   0.86350   0.53792247E-02
   0.86450   0.55297208E-02
   0.86550   0.56947595E-02
   0.86650   0.58774785E-02
   0.86750   0.60818070E-02
   0.86850   0.63125491E-02
   0.86950   0.65755676E-02
   0.87050   0.68781874E-02
   0.87150   0.72300327E-02
   0.87250   0.76446864E-02
   0.87350   0.81430459E-02
   0.87450   0.87605277E-02
   0.87550   0.95644454E-02
   0.87650   0.10704638E-01
   0.87750   0.12612196E-01
   0.87850   0.17075052E-01
   0.87950   0.23420623E-01
   0.88050   0.18251425E-01
   0.88150   0.31253643E-01
   0.88250   0.48450973E-01
   0.88350   0.60278177E-01
   0.88450   0.40053945E-01
   0.88550   0.43473419E-01
   0.88650   0.57745628E-01
   0.88750   0.81886001E-01
   0.88850   0.91193117E-01
   0.88950   0.94061129E-01
   0.89050   0.10994541E+00
   0.89150   0.13126086E+00
   0.89250   0.14124520E+00
   0.89350   0.12982838E+00
   0.89450   0.11267597E+00
   0.89550   0.10360101E+00
   0.89650   0.96110441E-01
   0.89750   0.86890839E-01
   0.89850   0.78015961E-01
   0.89950   0.71023665E-01
   0.90050   0.65825008E-01
   0.90150   0.61750747E-01
   0.90250   0.58524907E-01
   0.90350   0.56127366E-01
   0.90450   0.54383572E-01
   0.90550   0.53131208E-01
   0.90650   0.52239258E-01
   0.90750   0.51586907E-01
   0.90850   0.51075611E-01
   0.90950   0.50680917E-01
   0.91050   0.50464142E-01
   0.91150   0.50508041E-01
   0.91250   0.50855398E-01
   0.91350   0.51501535E-01
   0.91450   0.52407812E-01
   0.91550   0.53505257E-01
   0.91650   0.54709774E-01
   0.91750   0.55977926E-01
   0.91850   0.57359409E-01
   0.91950   0.58975037E-01
   0.92050   0.60945787E-01
   0.92150   0.63340589E-01
   0.92250   0.66162407E-01
   0.92350   0.69364212E-01
   0.92450   0.72881028E-01
   0.92550   0.76657876E-01
   0.92650   0.80659159E-01
   0.92750   0.84861860E-01
   0.92850   0.89245304E-01
   0.92950   0.93787551E-01
   0.93050   0.98468825E-01
   0.93150   0.10327275E+00
   0.93250   0.10817175E+00
   0.93350   0.11308675E+00
   0.93450   0.11782791E+00
   0.93550   0.12206487E+00
   0.93650   0.12542015E+00
   0.93750   0.12770976E+00
   0.93850   0.12912586E+00
   0.93950   0.13013610E+00
   0.94050   0.13122842E+00
   0.94150   0.13276765E+00
   0.94250   0.13499977E+00
   0.94350   0.13809419E+00
   0.94450   0.14214003E+00
   0.94550   0.14714590E+00
   0.94650   0.15329626E+00
   0.94750   0.16112779E+00
   0.94850   0.17346439E+00
   0.94950   0.21315636E+00
   0.95050   0.20986377E+00
   0.95150   0.20304142E+00
   0.95250   0.21680090E+00
   0.95350   0.24398945E+00
   0.95450   0.27437007E+00
   0.95550   0.27466708E+00
   0.95650   0.27007017E+00
   0.95750   0.27360249E+00
   0.95850   0.28616124E+00
   0.95950   0.30305961E+00
   0.96050   0.31541145E+00
   0.96150   0.32186827E+00
   0.96250   0.32935819E+00
   0.96350   0.34249890E+00
   0.96450   0.35973457E+00
   0.96550   0.37576690E+00
   0.96650   0.38856101E+00
   0.96750   0.40131897E+00
   0.96850   0.41690546E+00
   0.96950   0.43352672E+00
   0.97050   0.44552967E+00
   0.97150   0.44975477E+00
   0.97250   0.44877392E+00
   0.97350   0.44729045E+00
   0.97450   0.44864193E+00
   0.97550   0.45367584E+00
   0.97650   0.45970768E+00
   0.97750   0.46365821E+00
   0.97850   0.46541965E+00
   0.97950   0.46764624E+00
   0.98050   0.47307432E+00
   0.98150   0.48380738E+00
   0.98250   0.50286067E+00
   0.98350   0.53401417E+00
   0.98450   0.57217914E+00
   0.98550   0.59284723E+00
   0.98650   0.58029354E+00
   0.98750   0.54981989E+00
   0.98850   0.51404619E+00
   0.98950   0.47927973E+00
   0.99050   0.46086040E+00
   0.99150   0.46222642E+00
   0.99250   0.47059786E+00
   0.99350   0.48605171E+00
   0.99450   0.50869626E+00
   0.99550   0.52107906E+00
   0.99650   0.50901800E+00
   0.99750   0.48084062E+00
   0.99850   0.45242885E+00
   0.99950   0.43314180E+00
