# Transmission, k-averaged
# Date: 2021-05-13
#   E [eV]           T [G0]
   0.00050   0.24841504E-01
   0.00150   0.47730222E-01
   0.00250   0.20092746E-01
   0.00350   0.11916686E-01
   0.00450   0.10450052E-01
   0.00550   0.10049671E-01
   0.00650   0.90480996E-02
   0.00750   0.12456704E-01
   0.00850   0.12581095E-01
   0.00950   0.13370143E-01
   0.01050   0.24924494E-01
   0.01150   0.15824767E-01
   0.01250   0.18658621E-01
   0.01350   0.48136018E-01
   0.01450   0.20739516E-01
   0.01550   0.14337022E-01
   0.01650   0.37922643E-01
   0.01750   0.44467043E-01
   0.01850   0.97722299E-02
   0.01950   0.94757294E-02
   0.02050   0.49410284E-01
   0.02150   0.30719569E-01
   0.02250   0.11425499E-01
   0.02350   0.14301716E-01
   0.02450   0.36939383E-01
   0.02550   0.35251342E-01
   0.02650   0.15438788E-01
   0.02750   0.10629708E-01
   0.02850   0.90345796E-02
   0.02950   0.62204646E-02
   0.03050   0.29911201E-02
   0.03150   0.10957506E-02
   0.03250   0.24915746E-03
   0.03350   0.19196636E-03
   0.03450   0.78063074E-03
   0.03550   0.19239527E-02
   0.03650   0.35171439E-02
   0.03750   0.49755285E-02
   0.03850   0.59581441E-02
   0.03950   0.72019044E-02
   0.04050   0.98591316E-02
   0.04150   0.14719046E-01
   0.04250   0.17566059E-01
   0.04350   0.13768968E-01
   0.04450   0.10168216E-01
   0.04550   0.89987163E-02
   0.04650   0.96454797E-02
   0.04750   0.11403671E-01
   0.04850   0.12345798E-01
   0.04950   0.10515856E-01
   0.05050   0.77841813E-02
   0.05150   0.59600645E-02
   0.05250   0.51039560E-02
   0.05350   0.49504386E-02
   0.05450   0.53300671E-02
   0.05550   0.60230670E-02
   0.05650   0.64533390E-02
   0.05750   0.59840064E-02
   0.05850   0.49129864E-02
   0.05950   0.39505125E-02
   0.06050   0.33533012E-02
   0.06150   0.30931726E-02
   0.06250   0.31006336E-02
   0.06350   0.33070012E-02
   0.06450   0.35881875E-02
   0.06550   0.37145573E-02
   0.06650   0.34996977E-02
   0.06750   0.30405018E-02
   0.06850   0.25780478E-02
   0.06950   0.22461752E-02
   0.07050   0.20663200E-02
   0.07150   0.20205537E-02
   0.07250   0.20823546E-02
   0.07350   0.22102050E-02
   0.07450   0.23285528E-02
   0.07550   0.23402988E-02
   0.07650   0.22031395E-02
   0.07750   0.19765161E-02
   0.07850   0.17540436E-02
   0.07950   0.15920937E-02
   0.08050   0.15072420E-02
   0.08150   0.14976133E-02
   0.08250   0.15535915E-02
   0.08350   0.16542762E-02
   0.08450   0.17564950E-02
   0.08550   0.17972245E-02
   0.08650   0.17345655E-02
   0.08750   0.15915708E-02
   0.08850   0.14330656E-02
   0.08950   0.13122904E-02
   0.09050   0.12547794E-02
   0.09150   0.12635854E-02
   0.09250   0.12939700E-02
   0.09350   0.12943461E-02
   0.09450   0.12544005E-02
   0.09550   0.11699088E-02
   0.09650   0.10714101E-02
   0.09750   0.10030399E-02
   0.09850   0.99543203E-03
   0.09950   0.10650968E-02
   0.10050   0.12207903E-02
   0.10150   0.14583411E-02
   0.10250   0.17457999E-02
   0.10350   0.20258536E-02
   0.10450   0.22553005E-02
   0.10550   0.24353846E-02
   0.10650   0.25915916E-02
   0.10750   0.27407194E-02
   0.10850   0.28804690E-02
   0.10950   0.29971208E-02
   0.11050   0.30780353E-02
   0.11150   0.31197893E-02
   0.11250   0.31283584E-02
   0.11350   0.31140961E-02
   0.11450   0.30866296E-02
   0.11550   0.30523972E-02
   0.11650   0.30146148E-02
   0.11750   0.29743833E-02
   0.11850   0.29319176E-02
   0.11950   0.28873950E-02
   0.12050   0.28413248E-02
   0.12150   0.27945349E-02
   0.12250   0.27479664E-02
   0.12350   0.27024364E-02
   0.12450   0.26584778E-02
   0.12550   0.26162898E-02
   0.12650   0.25757875E-02
   0.12750   0.25367120E-02
   0.12850   0.24987557E-02
   0.12950   0.24616704E-02
   0.13050   0.24253342E-02
   0.13150   0.23897677E-02
   0.13250   0.23551083E-02
   0.13350   0.23215557E-02
   0.13450   0.22893094E-02
   0.13550   0.22585120E-02
   0.13650   0.22292130E-02
   0.13750   0.22013572E-02
   0.13850   0.21747968E-02
   0.13950   0.21493207E-02
   0.14050   0.21246956E-02
   0.14150   0.21007080E-02
   0.14250   0.20771998E-02
   0.14350   0.20540892E-02
   0.14450   0.20313777E-02
   0.14550   0.20091394E-02
   0.14650   0.19874983E-02
   0.14750   0.19665984E-02
   0.14850   0.19465723E-02
   0.14950   0.19275151E-02
   0.15050   0.19094655E-02
   0.15150   0.18923996E-02
   0.15250   0.18762343E-02
   0.15350   0.18608412E-02
   0.15450   0.18460675E-02
   0.15550   0.18317599E-02
   0.15650   0.18177878E-02
   0.15750   0.18040622E-02
   0.15850   0.17905468E-02
   0.15950   0.17772601E-02
   0.16050   0.17642680E-02
   0.16150   0.17516678E-02
   0.16250   0.17395676E-02
   0.16350   0.17280618E-02
   0.16450   0.17172087E-02
   0.16550   0.17070082E-02
   0.16650   0.16973852E-02
   0.16750   0.16881723E-02
   0.16850   0.16790887E-02
   0.16950   0.16697024E-02
   0.17050   0.16593433E-02
   0.17150   0.16468888E-02
   0.17250   0.16301901E-02
   0.17350   0.16043184E-02
   0.17450   0.15552564E-02
   0.17550   0.14429428E-02
   0.17650   0.12689753E-02
   0.17750   0.11242116E-02
   0.17850   0.10158720E-02
   0.17950   0.93151891E-03
   0.18050   0.86328189E-03
   0.18150   0.80650824E-03
   0.18250   0.75828144E-03
   0.18350   0.71666267E-03
   0.18450   0.68030052E-03
   0.18550   0.64821786E-03
   0.18650   0.61968807E-03
   0.18750   0.59415941E-03
   0.18850   0.57120627E-03
   0.18950   0.55049674E-03
   0.19050   0.53177023E-03
   0.19150   0.51482156E-03
   0.19250   0.49948966E-03
   0.19350   0.48564922E-03
   0.19450   0.47320517E-03
   0.19550   0.46208902E-03
   0.19650   0.45225723E-03
   0.19750   0.44369136E-03
   0.19850   0.43640053E-03
   0.19950   0.43042627E-03
   0.20050   0.42585091E-03
   0.20150   0.42281026E-03
   0.20250   0.42151325E-03
   0.20350   0.42227173E-03
   0.20450   0.42554562E-03
   0.20550   0.43201353E-03
   0.20650   0.44268285E-03
   0.20750   0.45906167E-03
   0.20850   0.48341881E-03
   0.20950   0.51912462E-03
   0.21050   0.57084206E-03
   0.21150   0.64319361E-03
   0.21250   0.73125400E-03
   0.21350   0.77644811E-03
   0.21450   0.55881700E-03
   0.21550   0.52692434E-04
   0.21650   0.26630389E-03
   0.21750   0.66920189E-03
   0.21850   0.77921082E-03
   0.21950   0.81827689E-03
   0.22050   0.84277557E-03
   0.22150   0.86192577E-03
   0.22250   0.87888556E-03
   0.22350   0.89528726E-03
   0.22450   0.91217272E-03
   0.22550   0.93032379E-03
   0.22650   0.95042307E-03
   0.22750   0.97315537E-03
   0.22850   0.99929201E-03
   0.22950   0.10297820E-02
   0.23050   0.10658688E-02
   0.23150   0.11092292E-02
   0.23250   0.11619556E-02
   0.23350   0.12246399E-02
   0.23450   0.12783661E-02
   0.23550   0.12636005E-02
   0.23650   0.12081889E-02
   0.23750   0.11505958E-02
   0.23850   0.10976560E-02
   0.23950   0.10497624E-02
   0.24050   0.10063404E-02
   0.24150   0.96675311E-03
   0.24250   0.93045307E-03
   0.24350   0.89699321E-03
   0.24450   0.86601061E-03
   0.24550   0.83720824E-03
   0.24650   0.81034034E-03
   0.24750   0.78520080E-03
   0.24850   0.76161465E-03
   0.24950   0.73943171E-03
   0.25050   0.71852206E-03
   0.25150   0.69877197E-03
   0.25250   0.68008172E-03
   0.25350   0.66236308E-03
   0.25450   0.64553809E-03
   0.25550   0.62953739E-03
   0.25650   0.61429938E-03
   0.25750   0.59976912E-03
   0.25850   0.58589765E-03
   0.25950   0.57264121E-03
   0.26050   0.55996061E-03
   0.26150   0.54782053E-03
   0.26250   0.53618912E-03
   0.26350   0.52503747E-03
   0.26450   0.51433896E-03
   0.26550   0.50406926E-03
   0.26650   0.49420568E-03
   0.26750   0.48472712E-03
   0.26850   0.47561387E-03
   0.26950   0.46684736E-03
   0.27050   0.45841013E-03
   0.27150   0.45028588E-03
   0.27250   0.44245928E-03
   0.27350   0.43491609E-03
   0.27450   0.42764319E-03
   0.27550   0.42062849E-03
   0.27650   0.41386098E-03
   0.27750   0.40733069E-03
   0.27850   0.40102878E-03
   0.27950   0.39494724E-03
   0.28050   0.38907910E-03
   0.28150   0.38341808E-03
   0.28250   0.37795864E-03
   0.28350   0.37269568E-03
   0.28450   0.36762460E-03
   0.28550   0.36274080E-03
   0.28650   0.35803963E-03
   0.28750   0.35351585E-03
   0.28850   0.34916311E-03
   0.28950   0.34497277E-03
   0.29050   0.34093219E-03
   0.29150   0.33702134E-03
   0.29250   0.33320600E-03
   0.29350   0.32942407E-03
   0.29450   0.32555408E-03
   0.29550   0.32133516E-03
   0.29650   0.31613203E-03
   0.29750   0.30809574E-03
   0.29850   0.29098830E-03
   0.29950   0.25668964E-03
   0.30050   0.22221408E-03
   0.30150   0.19583105E-03
   0.30250   0.17535644E-03
   0.30350   0.15887900E-03
   0.30450   0.14523641E-03
   0.30550   0.13370084E-03
   0.30650   0.12379086E-03
   0.30750   0.11517220E-03
   0.30850   0.10760353E-03
   0.30950   0.10090507E-03
   0.31050   0.94939387E-04
   0.31150   0.89599256E-04
   0.31250   0.84799576E-04
   0.31350   0.80471873E-04
   0.31450   0.76560405E-04
   0.31550   0.73019386E-04
   0.31650   0.69811002E-04
   0.31750   0.66903835E-04
   0.31850   0.64271779E-04
   0.31950   0.61893144E-04
   0.32050   0.59750022E-04
   0.32150   0.57827801E-04
   0.32250   0.56114775E-04
   0.32350   0.54601896E-04
   0.32450   0.53282602E-04
   0.32550   0.52152711E-04
   0.32650   0.51210405E-04
   0.32750   0.50456274E-04
   0.32850   0.49893431E-04
   0.32950   0.49527691E-04
   0.33050   0.49367867E-04
   0.33150   0.49426086E-04
   0.33250   0.49718234E-04
   0.33350   0.50264465E-04
   0.33450   0.51089755E-04
   0.33550   0.52224470E-04
   0.33650   0.53704840E-04
   0.33750   0.55573113E-04
   0.33850   0.57877049E-04
   0.33950   0.60668055E-04
   0.34050   0.63996871E-04
   0.34150   0.67904948E-04
   0.34250   0.72408737E-04
   0.34350   0.77473123E-04
   0.34450   0.82970189E-04
   0.34550   0.88622684E-04
   0.34650   0.93942937E-04
   0.34750   0.98203549E-04
   0.34850   0.10051433E-03
   0.34950   0.10009560E-03
   0.35050   0.96744661E-04
   0.35150   0.91237074E-04
   0.35250   0.85203596E-04
   0.35350   0.80338941E-04
   0.35450   0.77526216E-04
   0.35550   0.76621327E-04
   0.35650   0.76913086E-04
   0.35750   0.77694007E-04
   0.35850   0.78551449E-04
   0.35950   0.79397934E-04
   0.36050   0.80433252E-04
   0.36150   0.82259445E-04
   0.36250   0.86288906E-04
   0.36350   0.92199618E-04
   0.36450   0.97174401E-04
   0.36550   0.10147489E-03
   0.36650   0.10561893E-03
   0.36750   0.10984170E-03
   0.36850   0.11426288E-03
   0.36950   0.11896220E-03
   0.37050   0.12400937E-03
   0.37150   0.12947814E-03
   0.37250   0.13545516E-03
   0.37350   0.14204827E-03
   0.37450   0.14939647E-03
   0.37550   0.15768445E-03
   0.37650   0.16716494E-03
   0.37750   0.17819506E-03
   0.37850   0.19129527E-03
   0.37950   0.20723061E-03
   0.38050   0.22695430E-03
   0.38150   0.24945385E-03
   0.38250   0.26053094E-03
   0.38350   0.25399346E-03
   0.38450   0.24307094E-03
   0.38550   0.23208203E-03
   0.38650   0.22179968E-03
   0.38750   0.21231397E-03
   0.38850   0.20357364E-03
   0.38950   0.19550332E-03
   0.39050   0.18803150E-03
   0.39150   0.18109639E-03
   0.39250   0.17464597E-03
   0.39350   0.16863654E-03
   0.39450   0.16303112E-03
   0.39550   0.15779801E-03
   0.39650   0.15290971E-03
   0.39750   0.14834185E-03
   0.39850   0.14407255E-03
   0.39950   0.14008173E-03
   0.40050   0.13635051E-03
   0.40150   0.13286089E-03
   0.40250   0.12959509E-03
   0.40350   0.12653512E-03
   0.40450   0.12366213E-03
   0.40550   0.12095553E-03
   0.40650   0.11839158E-03
   0.40750   0.11594115E-03
   0.40850   0.11356553E-03
   0.40950   0.11120814E-03
   0.41050   0.10877609E-03
   0.41150   0.10609314E-03
   0.41250   0.10275818E-03
   0.41350   0.97668140E-04
   0.41450   0.88904861E-04
   0.41550   0.79713507E-04
   0.41650   0.73088078E-04
   0.41750   0.68328853E-04
   0.41850   0.64780266E-04
   0.41950   0.62071616E-04
   0.42050   0.59983984E-04
   0.42150   0.58379032E-04
   0.42250   0.57164456E-04
   0.42350   0.56276160E-04
   0.42450   0.55668319E-04
   0.42550   0.55307559E-04
   0.42650   0.55169305E-04
   0.42750   0.55235440E-04
   0.42850   0.55492706E-04
   0.42950   0.55931581E-04
   0.43050   0.56545454E-04
   0.43150   0.57330006E-04
   0.43250   0.58282669E-04
   0.43350   0.59402159E-04
   0.43450   0.60687951E-04
   0.43550   0.62139727E-04
   0.43650   0.63756619E-04
   0.43750   0.65536202E-04
   0.43850   0.67473062E-04
   0.43950   0.69556678E-04
   0.44050   0.71768278E-04
   0.44150   0.74076212E-04
   0.44250   0.76429089E-04
   0.44350   0.78746154E-04
   0.44450   0.80905178E-04
   0.44550   0.82732025E-04
   0.44650   0.84009647E-04
   0.44750   0.84562795E-04
   0.44850   0.84562846E-04
   0.44950   0.85279964E-04
   0.45050   0.90062174E-04
   0.45150   0.10377061E-03
   0.45250   0.12873321E-03
   0.45350   0.16024162E-03
   0.45450   0.18590635E-03
   0.45550   0.18890020E-03
   0.45650   0.16863497E-03
   0.45750   0.14559746E-03
   0.45850   0.13233424E-03
   0.45950   0.13369300E-03
   0.46050   0.15263639E-03
   0.46150   0.18244472E-03
   0.46250   0.21469298E-03
   0.46350   0.25612346E-03
   0.46450   0.27345392E-03
   0.46550   0.28487240E-03
   0.46650   0.24038764E-03
   0.46750   0.20342160E-03
   0.46850   0.24551596E-03
   0.46950   0.34403571E-03
   0.47050   0.47635369E-03
   0.47150   0.62205555E-03
   0.47250   0.75791980E-03
   0.47350   0.86786994E-03
   0.47450   0.97931991E-03
   0.47550   0.99535834E-03
   0.47650   0.98172843E-03
   0.47750   0.23855807E-02
   0.47850   0.15846565E-01
   0.47950   0.27120186E-02
   0.48050   0.22678990E-02
   0.48150   0.34081689E-02
   0.48250   0.43627345E-02
   0.48350   0.33915525E-02
   0.48450   0.24146675E-02
   0.48550   0.17871265E-02
   0.48650   0.13924732E-02
   0.48750   0.11368284E-02
   0.48850   0.96231885E-03
   0.48950   0.83162601E-03
   0.49050   0.72540116E-03
   0.49150   0.63655881E-03
   0.49250   0.56117336E-03
   0.49350   0.49484364E-03
   0.49450   0.43421745E-03
   0.49550   0.37860431E-03
   0.49650   0.32923510E-03
   0.49750   0.28720227E-03
   0.49850   0.25263865E-03
   0.49950   0.22763922E-03
   0.50050   0.21259661E-03
   0.50150   0.20585174E-03
   0.50250   0.20616819E-03
   0.50350   0.21267075E-03
   0.50450   0.22468712E-03
   0.50550   0.24166959E-03
   0.50650   0.26312209E-03
   0.50750   0.28851230E-03
   0.50850   0.31720655E-03
   0.50950   0.34848039E-03
   0.51050   0.38162337E-03
   0.51150   0.41609362E-03
   0.51250   0.45163871E-03
   0.51350   0.48831769E-03
   0.51450   0.52642229E-03
   0.51550   0.56635117E-03
   0.51650   0.60850393E-03
   0.51750   0.65320835E-03
   0.51850   0.70048118E-03
   0.51950   0.74830011E-03
   0.52050   0.78130094E-03
   0.52150   0.75911172E-03
   0.52250   0.70970209E-03
   0.52350   0.66566549E-03
   0.52450   0.62911870E-03
   0.52550   0.59823092E-03
   0.52650   0.57147525E-03
   0.52750   0.54786517E-03
   0.52850   0.52682671E-03
   0.52950   0.50805806E-03
   0.53050   0.49136352E-03
   0.53150   0.47625642E-03
   0.53250   0.46024966E-03
   0.53350   0.43592951E-03
   0.53450   0.40893097E-03
   0.53550   0.38941862E-03
   0.53650   0.37780614E-03
   0.53750   0.37324775E-03
   0.53850   0.37479837E-03
   0.53950   0.38108006E-03
   0.54050   0.39010536E-03
   0.54150   0.39965718E-03
   0.54250   0.40830046E-03
   0.54350   0.41627113E-03
   0.54450   0.42495609E-03
   0.54550   0.43498981E-03
   0.54650   0.44499183E-03
   0.54750   0.45233808E-03
   0.54850   0.45486566E-03
   0.54950   0.45181651E-03
   0.55050   0.44369005E-03
   0.55150   0.43163254E-03
   0.55250   0.41690862E-03
   0.55350   0.40061804E-03
   0.55450   0.38360455E-03
   0.55550   0.36646565E-03
   0.55650   0.34959911E-03
   0.55750   0.33325391E-03
   0.55850   0.31757329E-03
   0.55950   0.30262797E-03
   0.56050   0.28844006E-03
   0.56150   0.27499991E-03
   0.56250   0.26227825E-03
   0.56350   0.25023401E-03
   0.56450   0.23882012E-03
   0.56550   0.22798701E-03
   0.56650   0.21768491E-03
   0.56750   0.20786516E-03
   0.56850   0.19848098E-03
   0.56950   0.18948760E-03
   0.57050   0.18084234E-03
   0.57150   0.17250450E-03
   0.57250   0.16443532E-03
   0.57350   0.15659803E-03
   0.57450   0.14895819E-03
   0.57550   0.14148426E-03
   0.57650   0.13414865E-03
   0.57750   0.12692956E-03
   0.57850   0.11981369E-03
   0.57950   0.11280070E-03
   0.58050   0.10591017E-03
   0.58150   0.99192512E-04
   0.58250   0.92746188E-04
   0.58350   0.86744541E-04
   0.58450   0.81477170E-04
   0.58550   0.77412027E-04
   0.58650   0.75284428E-04
   0.58750   0.76212818E-04
   0.58850   0.81819722E-04
   0.58950   0.94282608E-04
   0.59050   0.11614477E-03
   0.59150   0.14962233E-03
   0.59250   0.19521882E-03
   0.59350   0.24998849E-03
   0.59450   0.30688540E-03
   0.59550   0.35707108E-03
   0.59650   0.39432745E-03
   0.59750   0.41748284E-03
   0.59850   0.42915234E-03
   0.59950   0.43317222E-03
   0.60050   0.43293953E-03
   0.60150   0.43090529E-03
   0.60250   0.42866435E-03
   0.60350   0.42720596E-03
   0.60450   0.42714208E-03
   0.60550   0.42887279E-03
   0.60650   0.43269680E-03
   0.60750   0.43888495E-03
   0.60850   0.44773347E-03
   0.60950   0.45960885E-03
   0.61050   0.47499442E-03
   0.61150   0.49454940E-03
   0.61250   0.51919260E-03
   0.61350   0.55022782E-03
   0.61450   0.58952201E-03
   0.61550   0.63965091E-03
   0.61650   0.70304255E-03
   0.61750   0.77121367E-03
   0.61850   0.77862700E-03
   0.61950   0.71010710E-03
   0.62050   0.63447678E-03
   0.62150   0.56783133E-03
   0.62250   0.51116775E-03
   0.62350   0.46287323E-03
   0.62450   0.42181351E-03
   0.62550   0.40270766E-03
   0.62650   0.44902557E-03
   0.62750   0.50392159E-03
   0.62850   0.48399818E-03
   0.62950   0.44633442E-03
   0.63050   0.41337014E-03
   0.63150   0.38637727E-03
   0.63250   0.36395865E-03
   0.63350   0.34491229E-03
   0.63450   0.32840800E-03
   0.63550   0.31387166E-03
   0.63650   0.30088265E-03
   0.63750   0.28910060E-03
   0.63850   0.27820288E-03
   0.63950   0.26780172E-03
   0.64050   0.25727189E-03
   0.64150   0.24525015E-03
   0.64250   0.22782251E-03
   0.64350   0.19592603E-03
   0.64450   0.22510297E-03
   0.64550   0.25275868E-03
   0.64650   0.25122095E-03
   0.64750   0.24789333E-03
   0.64850   0.24543033E-03
   0.64950   0.24415180E-03
   0.65050   0.24434851E-03
   0.65150   0.24691879E-03
   0.65250   0.25467391E-03
   0.65350   0.28187208E-03
   0.65450   0.29503912E-03
   0.65550   0.27439007E-03
   0.65650   0.26882222E-03
   0.65750   0.26789520E-03
   0.65850   0.27148926E-03
   0.65950   0.39240191E-03
   0.66050   0.28081603E-01
   0.66150   0.21179863E-02
   0.66250   0.16243566E-01
   0.66350   0.75336182E-02
   0.66450   0.56633209E-02
   0.66550   0.40045199E-02
   0.66650   0.29880842E-02
   0.66750   0.25124389E-02
   0.66850   0.22721519E-02
   0.66950   0.21276444E-02
   0.67050   0.20076183E-02
   0.67150   0.18903762E-02
   0.67250   0.17850876E-02
   0.67350   0.17033579E-02
   0.67450   0.16449027E-02
   0.67550   0.16015134E-02
   0.67650   0.15652947E-02
   0.67750   0.15314374E-02
   0.67850   0.14968426E-02
   0.67950   0.14587538E-02
   0.68050   0.14152018E-02
   0.68150   0.13665747E-02
   0.68250   0.13162576E-02
   0.68350   0.12690948E-02
   0.68450   0.12285867E-02
   0.68550   0.11938136E-02
   0.68650   0.11517877E-02
   0.68750   0.10638591E-02
   0.68850   0.95248374E-03
   0.68950   0.86551899E-03
   0.69050   0.80201484E-03
   0.69150   0.75515575E-03
   0.69250   0.71984302E-03
   0.69350   0.69255958E-03
   0.69450   0.67096337E-03
   0.69550   0.65358635E-03
   0.69650   0.63958432E-03
   0.69750   0.62852172E-03
   0.69850   0.62021066E-03
   0.69950   0.61462342E-03
   0.70050   0.61188370E-03
   0.70150   0.61232963E-03
   0.70250   0.61662879E-03
   0.70350   0.62580244E-03
   0.70450   0.63966156E-03
   0.70550   0.64411026E-03
   0.70650   0.62053383E-03
   0.70750   0.58895239E-03
   0.70850   0.55885251E-03
   0.70950   0.53132628E-03
   0.71050   0.50612877E-03
   0.71150   0.48288924E-03
   0.71250   0.46131085E-03
   0.71350   0.44119381E-03
   0.71450   0.42242027E-03
   0.71550   0.40492942E-03
   0.71650   0.38869205E-03
   0.71750   0.37368998E-03
   0.71850   0.35990227E-03
   0.71950   0.34729941E-03
   0.72050   0.33584307E-03
   0.72150   0.32548929E-03
   0.72250   0.31619263E-03
   0.72350   0.30790872E-03
   0.72450   0.30059463E-03
   0.72550   0.29420722E-03
   0.72650   0.28869961E-03
   0.72750   0.28401776E-03
   0.72850   0.28009733E-03
   0.72950   0.27686046E-03
   0.73050   0.27420945E-03
   0.73150   0.27200204E-03
   0.73250   0.27003582E-03
   0.73350   0.26844611E-03
   0.73450   0.26743361E-03
   0.73550   0.26691856E-03
   0.73650   0.26683265E-03
   0.73750   0.26714031E-03
   0.73850   0.26782285E-03
   0.73950   0.26886814E-03
   0.74050   0.27026390E-03
   0.74150   0.27199378E-03
   0.74250   0.27403544E-03
   0.74350   0.27636040E-03
   0.74450   0.27893510E-03
   0.74550   0.28172228E-03
   0.74650   0.28468276E-03
   0.74750   0.28777649E-03
   0.74850   0.29096336E-03
   0.74950   0.29420340E-03
   0.75050   0.29745724E-03
   0.75150   0.30068617E-03
   0.75250   0.30385313E-03
   0.75350   0.30692414E-03
   0.75450   0.30987023E-03
   0.75550   0.31266999E-03
   0.75650   0.31531238E-03
   0.75750   0.31779957E-03
   0.75850   0.32014929E-03
   0.75950   0.32239716E-03
   0.76050   0.32459828E-03
   0.76150   0.32682859E-03
   0.76250   0.32918624E-03
   0.76350   0.33179283E-03
   0.76450   0.33479571E-03
   0.76550   0.33837071E-03
   0.76650   0.34272685E-03
   0.76750   0.34811269E-03
   0.76850   0.35482552E-03
   0.76950   0.36322442E-03
   0.77050   0.37374871E-03
   0.77150   0.38694570E-03
   0.77250   0.40351553E-03
   0.77350   0.42439770E-03
   0.77450   0.45099462E-03
   0.77550   0.48606170E-03
   0.77650   0.54017687E-03
   0.77750   0.81322104E-03
   0.77850   0.13092505E-02
   0.77950   0.85231452E-03
   0.78050   0.92059636E-03
   0.78150   0.10473137E-02
   0.78250   0.11702137E-02
   0.78350   0.13476547E-02
   0.78450   0.17945577E-02
   0.78550   0.27858375E-02
   0.78650   0.28361219E-02
   0.78750   0.48190542E-02
   0.78850   0.15138336E-01
   0.78950   0.28280934E-01
   0.79050   0.36697250E-01
   0.79150   0.97681306E-01
   0.79250   0.11273991E+00
   0.79350   0.65179467E-01
   0.79450   0.44789299E-01
   0.79550   0.30531788E-01
   0.79650   0.22501457E-01
   0.79750   0.18025082E-01
   0.79850   0.14854205E-01
   0.79950   0.12781823E-01
   0.80050   0.11175459E-01
   0.80150   0.97179376E-02
   0.80250   0.85094934E-02
   0.80350   0.75802710E-02
   0.80450   0.69002262E-02
   0.80550   0.64244820E-02
   0.80650   0.60865195E-02
   0.80750   0.58307294E-02
   0.80850   0.56342976E-02
   0.80950   0.54902267E-02
   0.81050   0.53859628E-02
   0.81150   0.53023892E-02
   0.81250   0.52240132E-02
   0.81350   0.51439027E-02
   0.81450   0.50601522E-02
   0.81550   0.49719522E-02
   0.81650   0.48794150E-02
   0.81750   0.47845566E-02
   0.81850   0.46913992E-02
   0.81950   0.46056290E-02
   0.82050   0.45339908E-02
   0.82150   0.44828388E-02
   0.82250   0.44561904E-02
   0.82350   0.44546542E-02
   0.82450   0.44763940E-02
   0.82550   0.45205751E-02
   0.82650   0.45847301E-02
   0.82750   0.46554683E-02
   0.82850   0.47310907E-02
   0.82950   0.48142755E-02
   0.83050   0.49058110E-02
   0.83150   0.50043240E-02
   0.83250   0.51072380E-02
   0.83350   0.52123629E-02
   0.83450   0.53192810E-02
   0.83550   0.54297228E-02
   0.83650   0.55467375E-02
   0.83750   0.56732455E-02
   0.83850   0.58108512E-02
   0.83950   0.59594424E-02
   0.84050   0.61171441E-02
   0.84150   0.62774112E-02
   0.84250   0.64065005E-02
   0.84350   0.63910559E-02
   0.84450   0.62782853E-02
   0.84550   0.62038372E-02
   0.84650   0.61781760E-02
   0.84750   0.61871894E-02
   0.84850   0.62076375E-02
   0.84950   0.62388876E-02
   0.85050   0.62856120E-02
   0.85150   0.63452027E-02
   0.85250   0.64149611E-02
   0.85350   0.64929323E-02
   0.85450   0.65776808E-02
   0.85550   0.66681663E-02
   0.85650   0.67637875E-02
   0.85750   0.68645105E-02
   0.85850   0.69709751E-02
   0.85950   0.70845289E-02
   0.86050   0.72071739E-02
   0.86150   0.73414729E-02
   0.86250   0.74904710E-02
   0.86350   0.76576630E-02
   0.86450   0.78470036E-02
   0.86550   0.80629522E-02
   0.86650   0.83105061E-02
   0.86750   0.85952347E-02
   0.86850   0.89233471E-02
   0.86950   0.93018636E-02
   0.87050   0.97390572E-02
   0.87150   0.10245371E-01
   0.87250   0.10835231E-01
   0.87350   0.11530642E-01
   0.87450   0.12368698E-01
   0.87550   0.13419523E-01
   0.87650   0.14838948E-01
   0.87750   0.17082470E-01
   0.87850   0.22215717E-01
   0.87950   0.30763423E-01
   0.88050   0.21757113E-01
   0.88150   0.28304137E-01
   0.88250   0.41006546E-01
   0.88350   0.63126430E-01
   0.88450   0.50950546E-01
   0.88550   0.64762287E-01
   0.88650   0.10103626E+00
   0.88750   0.16419101E+00
   0.88850   0.18723914E+00
   0.88950   0.17084989E+00
   0.89050   0.17997982E+00
   0.89150   0.21613356E+00
   0.89250   0.23293947E+00
   0.89350   0.22198631E+00
   0.89450   0.20504111E+00
   0.89550   0.20134555E+00
   0.89650   0.20259981E+00
   0.89750   0.19237329E+00
   0.89850   0.16977802E+00
   0.89950   0.14815933E+00
   0.90050   0.13128805E+00
   0.90150   0.11827821E+00
   0.90250   0.10927130E+00
   0.90350   0.10424297E+00
   0.90450   0.10205315E+00
   0.90550   0.10148795E+00
   0.90650   0.10149226E+00
   0.90750   0.10140619E+00
   0.90850   0.10097706E+00
   0.90950   0.10018076E+00
   0.91050   0.99062979E-01
   0.91150   0.97692139E-01
   0.91250   0.96278705E-01
   0.91350   0.95282182E-01
   0.91450   0.95178537E-01
   0.91550   0.96086003E-01
   0.91650   0.97734153E-01
   0.91750   0.99769726E-01
   0.91850   0.10201564E+00
   0.91950   0.10445187E+00
   0.92050   0.10707177E+00
   0.92150   0.10982721E+00
   0.92250   0.11267047E+00
   0.92350   0.11560571E+00
   0.92450   0.11869471E+00
   0.92550   0.12201915E+00
   0.92650   0.12563424E+00
   0.92750   0.12954219E+00
   0.92850   0.13369313E+00
   0.92950   0.13800645E+00
   0.93050   0.14240023E+00
   0.93150   0.14681393E+00
   0.93250   0.15121394E+00
   0.93350   0.15557952E+00
   0.93450   0.15987565E+00
   0.93550   0.16403227E+00
   0.93650   0.16796935E+00
   0.93750   0.17168766E+00
   0.93850   0.17535152E+00
   0.93950   0.17925720E+00
   0.94050   0.18371865E+00
   0.94150   0.18898395E+00
   0.94250   0.19521850E+00
   0.94350   0.20252700E+00
   0.94450   0.21099068E+00
   0.94550   0.22059296E+00
   0.94650   0.23113349E+00
   0.94750   0.24251464E+00
   0.94850   0.25482056E+00
   0.94950   0.26861176E+00
   0.95050   0.28074074E+00
   0.95150   0.29556569E+00
   0.95250   0.31187183E+00
   0.95350   0.32710075E+00
   0.95450   0.33840761E+00
   0.95550   0.35910204E+00
   0.95650   0.38081464E+00
   0.95750   0.39838058E+00
   0.95850   0.41476184E+00
   0.95950   0.42870101E+00
   0.96050   0.43794894E+00
   0.96150   0.44519809E+00
   0.96250   0.45554006E+00
   0.96350   0.47231522E+00
   0.96450   0.49667001E+00
   0.96550   0.52532005E+00
   0.96650   0.55254269E+00
   0.96750   0.57679605E+00
   0.96850   0.59799820E+00
   0.96950   0.61395603E+00
   0.97050   0.62478328E+00
   0.97150   0.63587582E+00
   0.97250   0.65304214E+00
   0.97350   0.67616349E+00
   0.97450   0.69921649E+00
   0.97550   0.71739024E+00
   0.97650   0.72996378E+00
   0.97750   0.73650861E+00
   0.97850   0.73700452E+00
   0.97950   0.73520744E+00
   0.98050   0.73551339E+00
   0.98150   0.73855084E+00
   0.98250   0.74139839E+00
   0.98350   0.74134928E+00
   0.98450   0.73908442E+00
   0.98550   0.73783392E+00
   0.98650   0.73907906E+00
   0.98750   0.74165285E+00
   0.98850   0.74364769E+00
   0.98950   0.74256307E+00
   0.99050   0.73803830E+00
   0.99150   0.73140645E+00
   0.99250   0.72515780E+00
   0.99350   0.72507483E+00
   0.99450   0.73796594E+00
   0.99550   0.76120967E+00
   0.99650   0.78184456E+00
   0.99750   0.79344106E+00
   0.99850   0.79995763E+00
   0.99950   0.80706096E+00
