# Transmission, k-averaged
# Date: 2021-05-13
#   E [eV]           T [G0]
   0.00050   0.36290112E+00
   0.00150   0.17607042E+00
   0.00250   0.13985083E+00
   0.00350   0.42631894E-01
   0.00450   0.10728574E-01
   0.00550   0.10947078E+00
   0.00650   0.85145654E-02
   0.00750   0.20468526E-01
   0.00850   0.21491952E-01
   0.00950   0.59396983E-02
   0.01050   0.13399385E-01
   0.01150   0.51806897E-01
   0.01250   0.60791192E-02
   0.01350   0.45377719E-02
   0.01450   0.12076785E-01
   0.01550   0.64113960E-01
   0.01650   0.61623529E-02
   0.01750   0.31167918E-02
   0.01850   0.37403353E-02
   0.01950   0.12786197E-01
   0.02050   0.46531323E-01
   0.02150   0.48068021E-02
   0.02250   0.22128450E-02
   0.02350   0.20523993E-02
   0.02450   0.36611049E-02
   0.02550   0.22495860E-01
   0.02650   0.16977735E-01
   0.02750   0.31306015E-02
   0.02850   0.17462914E-02
   0.02950   0.17311313E-02
   0.03050   0.29105423E-02
   0.03150   0.10999063E-01
   0.03250   0.60901772E-01
   0.03350   0.78384420E-02
   0.03450   0.35469371E-02
   0.03550   0.29457831E-02
   0.03650   0.37282959E-02
   0.03750   0.73065385E-02
   0.03850   0.26394634E-01
   0.03950   0.54063920E-01
   0.04050   0.15942262E-01
   0.04150   0.83881998E-02
   0.04250   0.70032771E-02
   0.04350   0.82713198E-02
   0.04450   0.13269174E-01
   0.04550   0.21800645E-01
   0.04650   0.20892119E-01
   0.04750   0.14371733E-01
   0.04850   0.10216326E-01
   0.04950   0.82163541E-02
   0.05050   0.74160383E-02
   0.05150   0.73106252E-02
   0.05250   0.76128319E-02
   0.05350   0.80563575E-02
   0.05450   0.83359443E-02
   0.05550   0.82303938E-02
   0.05650   0.77649835E-02
   0.05750   0.71495469E-02
   0.05850   0.65816520E-02
   0.05950   0.61576627E-02
   0.06050   0.58940025E-02
   0.06150   0.57663755E-02
   0.06250   0.57320525E-02
   0.06350   0.57400269E-02
   0.06450   0.57398146E-02
   0.06550   0.56934673E-02
   0.06650   0.55864928E-02
   0.06750   0.54295226E-02
   0.06850   0.52488972E-02
   0.06950   0.50732461E-02
   0.07050   0.49240291E-02
   0.07150   0.48122997E-02
   0.07250   0.47395662E-02
   0.07350   0.47001396E-02
   0.07450   0.46837050E-02
   0.07550   0.46779173E-02
   0.07650   0.46711159E-02
   0.07750   0.46548960E-02
   0.07850   0.46258676E-02
   0.07950   0.45859581E-02
   0.08050   0.45412001E-02
   0.08150   0.44996254E-02
   0.08250   0.44691488E-02
   0.08350   0.44560512E-02
   0.08450   0.44642221E-02
   0.08550   0.44950168E-02
   0.08650   0.45475140E-02
   0.08750   0.46189935E-02
   0.08850   0.47054030E-02
   0.08950   0.48009460E-02
   0.09050   0.48923679E-02
   0.09150   0.49220133E-02
   0.09250   0.47114873E-02
   0.09350   0.43396703E-02
   0.09450   0.40043565E-02
   0.09550   0.37261078E-02
   0.09650   0.34939067E-02
   0.09750   0.32968689E-02
   0.09850   0.31265097E-02
   0.09950   0.29763649E-02
   0.10050   0.28415765E-02
   0.10150   0.27186021E-02
   0.10250   0.26049870E-02
   0.10350   0.24991517E-02
   0.10450   0.24001761E-02
   0.10550   0.23075850E-02
   0.10650   0.22211552E-02
   0.10750   0.21407555E-02
   0.10850   0.20662344E-02
   0.10950   0.19973530E-02
   0.11050   0.19337625E-02
   0.11150   0.18750117E-02
   0.11250   0.18205772E-02
   0.11350   0.17699047E-02
   0.11450   0.17224537E-02
   0.11550   0.16777368E-02
   0.11650   0.16353496E-02
   0.11750   0.15949884E-02
   0.11850   0.15564531E-02
   0.11950   0.15196368E-02
   0.12050   0.14845068E-02
   0.12150   0.14510782E-02
   0.12250   0.14193881E-02
   0.12350   0.13894705E-02
   0.12450   0.13613381E-02
   0.12550   0.13349708E-02
   0.12650   0.13103117E-02
   0.12750   0.12872694E-02
   0.12850   0.12657256E-02
   0.12950   0.12455464E-02
   0.13050   0.12265954E-02
   0.13150   0.12087452E-02
   0.13250   0.11918887E-02
   0.13350   0.11759461E-02
   0.13450   0.11608682E-02
   0.13550   0.11466362E-02
   0.13650   0.11332575E-02
   0.13750   0.11207591E-02
   0.13850   0.11091789E-02
   0.13950   0.10985578E-02
   0.14050   0.10889317E-02
   0.14150   0.10803256E-02
   0.14250   0.10727496E-02
   0.14350   0.10661985E-02
   0.14450   0.10606518E-02
   0.14550   0.10560786E-02
   0.14650   0.10524405E-02
   0.14750   0.10496986E-02
   0.14850   0.10478187E-02
   0.14950   0.10467757E-02
   0.15050   0.10465587E-02
   0.15150   0.10471714E-02
   0.15250   0.10486335E-02
   0.15350   0.10509779E-02
   0.15450   0.10542481E-02
   0.15550   0.10584922E-02
   0.15650   0.10637587E-02
   0.15750   0.10700898E-02
   0.15850   0.10775164E-02
   0.15950   0.10860536E-02
   0.16050   0.10956977E-02
   0.16150   0.11064244E-02
   0.16250   0.11181867E-02
   0.16350   0.11309169E-02
   0.16450   0.11445256E-02
   0.16550   0.11589023E-02
   0.16650   0.11739125E-02
   0.16750   0.11893904E-02
   0.16850   0.12051209E-02
   0.16950   0.12208009E-02
   0.17050   0.12359553E-02
   0.17150   0.12497408E-02
   0.17250   0.12604394E-02
   0.17350   0.12639092E-02
   0.17450   0.12478719E-02
   0.17550   0.11751726E-02
   0.17650   0.10403346E-02
   0.17750   0.92409371E-03
   0.17850   0.83648489E-03
   0.17950   0.76787168E-03
   0.18050   0.71188301E-03
   0.18150   0.66474831E-03
   0.18250   0.62412990E-03
   0.18350   0.58850099E-03
   0.18450   0.55682025E-03
   0.18550   0.52835251E-03
   0.18650   0.50256384E-03
   0.18750   0.47905653E-03
   0.18850   0.45752764E-03
   0.18950   0.43774140E-03
   0.19050   0.41951018E-03
   0.19150   0.40268144E-03
   0.19250   0.38712853E-03
   0.19350   0.37274408E-03
   0.19450   0.35943548E-03
   0.19550   0.34712150E-03
   0.19650   0.33573009E-03
   0.19750   0.32519674E-03
   0.19850   0.31546332E-03
   0.19950   0.30647716E-03
   0.20050   0.29819075E-03
   0.20150   0.29056100E-03
   0.20250   0.28354910E-03
   0.20350   0.27712010E-03
   0.20450   0.27124264E-03
   0.20550   0.26588870E-03
   0.20650   0.26103336E-03
   0.20750   0.25665446E-03
   0.20850   0.25273237E-03
   0.20950   0.24924974E-03
   0.21050   0.24619116E-03
   0.21150   0.24354317E-03
   0.21250   0.24129415E-03
   0.21350   0.23943528E-03
   0.21450   0.23796396E-03
   0.21550   0.23689948E-03
   0.21650   0.23636270E-03
   0.21750   0.23696350E-03
   0.21850   0.23942041E-03
   0.21950   0.24265581E-03
   0.22050   0.24618887E-03
   0.22150   0.25004748E-03
   0.22250   0.25431885E-03
   0.22350   0.25909714E-03
   0.22450   0.26448455E-03
   0.22550   0.27059831E-03
   0.22650   0.27757997E-03
   0.22750   0.28560773E-03
   0.22850   0.29491412E-03
   0.22950   0.30581269E-03
   0.23050   0.31873983E-03
   0.23150   0.33431372E-03
   0.23250   0.35336555E-03
   0.23350   0.37640476E-03
   0.23450   0.39773612E-03
   0.23550   0.39688341E-03
   0.23650   0.38151979E-03
   0.23750   0.36467638E-03
   0.23850   0.34895007E-03
   0.23950   0.33463180E-03
   0.24050   0.32161621E-03
   0.24150   0.30974241E-03
   0.24250   0.29886121E-03
   0.24350   0.28884647E-03
   0.24450   0.27959369E-03
   0.24550   0.27101630E-03
   0.24650   0.26304220E-03
   0.24750   0.25561065E-03
   0.24850   0.24867017E-03
   0.24950   0.24217679E-03
   0.25050   0.23609256E-03
   0.25150   0.23038464E-03
   0.25250   0.22502446E-03
   0.25350   0.21998695E-03
   0.25450   0.21525014E-03
   0.25550   0.21079468E-03
   0.25650   0.20660339E-03
   0.25750   0.20266109E-03
   0.25850   0.19895422E-03
   0.25950   0.19547071E-03
   0.26050   0.19219972E-03
   0.26150   0.18913155E-03
   0.26250   0.18625749E-03
   0.26350   0.18356972E-03
   0.26450   0.18106122E-03
   0.26550   0.17872574E-03
   0.26650   0.17655775E-03
   0.26750   0.17455242E-03
   0.26850   0.17270559E-03
   0.26950   0.17101383E-03
   0.27050   0.16947433E-03
   0.27150   0.16808504E-03
   0.27250   0.16684463E-03
   0.27350   0.16575254E-03
   0.27450   0.16480892E-03
   0.27550   0.16401480E-03
   0.27650   0.16337197E-03
   0.27750   0.16288314E-03
   0.27850   0.16255188E-03
   0.27950   0.16238277E-03
   0.28050   0.16238139E-03
   0.28150   0.16255442E-03
   0.28250   0.16290981E-03
   0.28350   0.16345685E-03
   0.28450   0.16420637E-03
   0.28550   0.16517105E-03
   0.28650   0.16636559E-03
   0.28750   0.16780720E-03
   0.28850   0.16951597E-03
   0.28950   0.17151548E-03
   0.29050   0.17383316E-03
   0.29150   0.17650086E-03
   0.29250   0.17955442E-03
   0.29350   0.18303120E-03
   0.29450   0.18696085E-03
   0.29550   0.19133350E-03
   0.29650   0.19598255E-03
   0.29750   0.20007761E-03
   0.29850   0.19968589E-03
   0.29950   0.18641603E-03
   0.30050   0.16872052E-03
   0.30150   0.15437255E-03
   0.30250   0.14314454E-03
   0.30350   0.13418663E-03
   0.30450   0.12690714E-03
   0.30550   0.12091841E-03
   0.30650   0.11596092E-03
   0.30750   0.11185657E-03
   0.30850   0.10848157E-03
   0.30950   0.10575055E-03
   0.31050   0.10360717E-03
   0.31150   0.10201892E-03
   0.31250   0.10097471E-03
   0.31350   0.10048481E-03
   0.31450   0.10058295E-03
   0.31550   0.10133118E-03
   0.31650   0.10282821E-03
   0.31750   0.10522293E-03
   0.31850   0.10873595E-03
   0.31950   0.11369354E-03
   0.32050   0.12058108E-03
   0.32150   0.13012478E-03
   0.32250   0.14340653E-03
   0.32350   0.16197863E-03
   0.32450   0.18777412E-03
   0.32550   0.22199206E-03
   0.32650   0.26068013E-03
   0.32750   0.28569941E-03
   0.32850   0.26942461E-03
   0.32950   0.21652147E-03
   0.33050   0.16212177E-03
   0.33150   0.12325007E-03
   0.33250   0.98624827E-04
   0.33350   0.83400417E-04
   0.33450   0.73919953E-04
   0.33550   0.67943489E-04
   0.33650   0.64156964E-04
   0.33750   0.61785300E-04
   0.33850   0.60361628E-04
   0.33950   0.59597714E-04
   0.34050   0.59311518E-04
   0.34150   0.59385959E-04
   0.34250   0.59745034E-04
   0.34350   0.60339640E-04
   0.34450   0.61139086E-04
   0.34550   0.62126062E-04
   0.34650   0.63293803E-04
   0.34750   0.64644795E-04
   0.34850   0.66190776E-04
   0.34950   0.67953857E-04
   0.35050   0.69969188E-04
   0.35150   0.72289382E-04
   0.35250   0.74991709E-04
   0.35350   0.78189580E-04
   0.35450   0.82050756E-04
   0.35550   0.86826942E-04
   0.35650   0.92902832E-04
   0.35750   0.10088035E-03
   0.35850   0.11172966E-03
   0.35950   0.12707776E-03
   0.36050   0.14981696E-03
   0.36150   0.18557173E-03
   0.36250   0.24549686E-03
   0.36350   0.33636377E-03
   0.36450   0.45290709E-03
   0.36550   0.60187606E-03
   0.36650   0.81019534E-03
   0.36750   0.11173191E-02
   0.36850   0.11670894E-02
   0.36950   0.12960478E-02
   0.37050   0.13963807E-02
   0.37150   0.15464312E-02
   0.37250   0.18782428E-02
   0.37350   0.22141784E-02
   0.37450   0.17252355E-02
   0.37550   0.12196284E-02
   0.37650   0.10898531E-02
   0.37750   0.11474944E-02
   0.37850   0.12825634E-02
   0.37950   0.14261225E-02
   0.38050   0.15165383E-02
   0.38150   0.14709668E-02
   0.38250   0.11698391E-02
   0.38350   0.43947058E-03
   0.38450   0.48743971E-03
   0.38550   0.43794850E-03
   0.38650   0.10975056E-02
   0.38750   0.44768299E-02
   0.38850   0.19291599E-02
   0.38950   0.15755576E-02
   0.39050   0.13277092E-02
   0.39150   0.12809193E-02
   0.39250   0.12628381E-02
   0.39350   0.12671413E-02
   0.39450   0.12773608E-02
   0.39550   0.13422517E-02
   0.39650   0.14644125E-02
   0.39750   0.15915560E-02
   0.39850   0.17167410E-02
   0.39950   0.18868863E-02
   0.40050   0.21179274E-02
   0.40150   0.23695587E-02
   0.40250   0.25932686E-02
   0.40350   0.27866622E-02
   0.40450   0.29892556E-02
   0.40550   0.32362256E-02
   0.40650   0.35271251E-02
   0.40750   0.38273740E-02
   0.40850   0.40960861E-02
   0.40950   0.43207039E-02
   0.41050   0.45261020E-02
   0.41150   0.47487593E-02
   0.41250   0.49935943E-02
   0.41350   0.51531186E-02
   0.41450   0.48571127E-02
   0.41550   0.41835816E-02
   0.41650   0.36014102E-02
   0.41750   0.31557844E-02
   0.41850   0.28129364E-02
   0.41950   0.25423586E-02
   0.42050   0.23205110E-02
   0.42150   0.21303855E-02
   0.42250   0.19610086E-02
   0.42350   0.18065230E-02
   0.42450   0.16647209E-02
   0.42550   0.15353097E-02
   0.42650   0.14183925E-02
   0.42750   0.13135552E-02
   0.42850   0.12196293E-02
   0.42950   0.11349287E-02
   0.43050   0.10576682E-02
   0.43150   0.98633766E-03
   0.43250   0.91991492E-03
   0.43350   0.85789524E-03
   0.43450   0.80017338E-03
   0.43550   0.74684550E-03
   0.43650   0.69801311E-03
   0.43750   0.65364939E-03
   0.43850   0.61355607E-03
   0.43950   0.57739631E-03
   0.44050   0.54476812E-03
   0.44150   0.51528087E-03
   0.44250   0.48860913E-03
   0.44350   0.46451474E-03
   0.44450   0.44284048E-03
   0.44550   0.42348620E-03
   0.44650   0.40637882E-03
   0.44750   0.39144765E-03
   0.44850   0.37861051E-03
   0.44950   0.36777137E-03
   0.45050   0.35882584E-03
   0.45150   0.35166790E-03
   0.45250   0.34618628E-03
   0.45350   0.34222708E-03
   0.45450   0.33945552E-03
   0.45550   0.33692244E-03
   0.45650   0.33184359E-03
   0.45750   0.31727334E-03
   0.45850   0.28448255E-03
   0.45950   0.24388525E-03
   0.46050   0.22087649E-03
   0.46150   0.21551120E-03
   0.46250   0.21681256E-03
   0.46350   0.21918566E-03
   0.46450   0.22093231E-03
   0.46550   0.22170840E-03
   0.46650   0.22154415E-03
   0.46750   0.22054989E-03
   0.46850   0.21883806E-03
   0.46950   0.21650847E-03
   0.47050   0.21365340E-03
   0.47150   0.21037353E-03
   0.47250   0.20681031E-03
   0.47350   0.20321227E-03
   0.47450   0.20007552E-03
   0.47550   0.19843887E-03
   0.47650   0.20045263E-03
   0.47750   0.21010249E-03
   0.47850   0.23226214E-03
   0.47950   0.26498351E-03
   0.48050   0.29140734E-03
   0.48150   0.29791938E-03
   0.48250   0.28981044E-03
   0.48350   0.27672123E-03
   0.48450   0.26355655E-03
   0.48550   0.25181120E-03
   0.48650   0.24167552E-03
   0.48750   0.23297862E-03
   0.48850   0.22550250E-03
   0.48950   0.21906832E-03
   0.49050   0.21355166E-03
   0.49150   0.20887946E-03
   0.49250   0.20502607E-03
   0.49350   0.20201647E-03
   0.49450   0.19994787E-03
   0.49550   0.19906207E-03
   0.49650   0.19999642E-03
   0.49750   0.20480300E-03
   0.49850   0.21927616E-03
   0.49950   0.24222807E-03
   0.50050   0.26541343E-03
   0.50150   0.28807428E-03
   0.50250   0.31090254E-03
   0.50350   0.33447807E-03
   0.50450   0.35926243E-03
   0.50550   0.38566548E-03
   0.50650   0.41409131E-03
   0.50750   0.44497079E-03
   0.50850   0.47878971E-03
   0.50950   0.51611755E-03
   0.51050   0.55764330E-03
   0.51150   0.60422200E-03
   0.51250   0.65694051E-03
   0.51350   0.71721268E-03
   0.51450   0.78692089E-03
   0.51550   0.86862926E-03
   0.51650   0.96590311E-03
   0.51750   0.10837350E-02
   0.51850   0.12287154E-02
   0.51950   0.14055000E-02
   0.52050   0.15810929E-02
   0.52150   0.16057965E-02
   0.52250   0.15179093E-02
   0.52350   0.14308463E-02
   0.52450   0.13683571E-02
   0.52550   0.13347385E-02
   0.52650   0.14100750E-02
   0.52750   0.18319826E-02
   0.52850   0.15879315E-02
   0.52950   0.14224828E-02
   0.53050   0.13798638E-02
   0.53150   0.14008522E-02
   0.53250   0.14700278E-02
   0.53350   0.15532995E-02
   0.53450   0.34154786E-02
   0.53550   0.14142632E-02
   0.53650   0.12657995E-02
   0.53750   0.16303984E-02
   0.53850   0.13958000E-02
   0.53950   0.16435788E-02
   0.54050   0.83710970E-02
   0.54150   0.71413266E-02
   0.54250   0.58476501E-02
   0.54350   0.64364332E-02
   0.54450   0.56411009E-02
   0.54550   0.53107594E-02
   0.54650   0.52761948E-02
   0.54750   0.47999932E-02
   0.54850   0.41824416E-02
   0.54950   0.38697573E-02
   0.55050   0.36452401E-02
   0.55150   0.32739353E-02
   0.55250   0.28827400E-02
   0.55350   0.26012063E-02
   0.55450   0.23844794E-02
   0.55550   0.21562579E-02
   0.55650   0.19181436E-02
   0.55750   0.17170468E-02
   0.55850   0.15726164E-02
   0.55950   0.14697534E-02
   0.56050   0.13818038E-02
   0.56150   0.12935498E-02
   0.56250   0.12098572E-02
   0.56350   0.11438815E-02
   0.56450   0.11027084E-02
   0.56550   0.10840937E-02
   0.56650   0.10801333E-02
   0.56750   0.10823290E-02
   0.56850   0.10858515E-02
   0.56950   0.10909032E-02
   0.57050   0.11005314E-02
   0.57150   0.11173148E-02
   0.57250   0.11414826E-02
   0.57350   0.11708742E-02
   0.57450   0.12020022E-02
   0.57550   0.12315337E-02
   0.57650   0.12575744E-02
   0.57750   0.12801412E-02
   0.57850   0.13006160E-02
   0.57950   0.13206367E-02
   0.58050   0.13411391E-02
   0.58150   0.13619611E-02
   0.58250   0.13820061E-02
   0.58350   0.13997526E-02
   0.58450   0.14138594E-02
   0.58550   0.14236344E-02
   0.58650   0.14292042E-02
   0.58750   0.14313544E-02
   0.58850   0.14311541E-02
   0.58950   0.14295542E-02
   0.59050   0.14271147E-02
   0.59150   0.14239270E-02
   0.59250   0.14197106E-02
   0.59350   0.14140145E-02
   0.59450   0.14064390E-02
   0.59550   0.13968028E-02
   0.59650   0.13852092E-02
   0.59750   0.13720071E-02
   0.59850   0.13576816E-02
   0.59950   0.13427221E-02
   0.60050   0.13275171E-02
   0.60150   0.13122988E-02
   0.60250   0.12971447E-02
   0.60350   0.12820204E-02
   0.60450   0.12668459E-02
   0.60550   0.12515584E-02
   0.60650   0.12361573E-02
   0.60750   0.12207167E-02
   0.60850   0.12053738E-02
   0.60950   0.11902966E-02
   0.61050   0.11756510E-02
   0.61150   0.11615732E-02
   0.61250   0.11481571E-02
   0.61350   0.11354509E-02
   0.61450   0.11234496E-02
   0.61550   0.11120166E-02
   0.61650   0.11004511E-02
   0.61750   0.10852460E-02
   0.61850   0.10576736E-02
   0.61950   0.10276213E-02
   0.62050   0.10069489E-02
   0.62150   0.99870714E-03
   0.62250   0.10108399E-02
   0.62350   0.10354683E-02
   0.62450   0.10543338E-02
   0.62550   0.10675070E-02
   0.62650   0.10772323E-02
   0.62750   0.10849128E-02
   0.62850   0.10914301E-02
   0.62950   0.10973990E-02
   0.63050   0.11033048E-02
   0.63150   0.11095799E-02
   0.63250   0.11166597E-02
   0.63350   0.11250332E-02
   0.63450   0.11353091E-02
   0.63550   0.11483303E-02
   0.63650   0.11654360E-02
   0.63750   0.11892109E-02
   0.63850   0.12262391E-02
   0.63950   0.13008259E-02
   0.64050   0.15349204E-02
   0.64150   0.17630975E-02
   0.64250   0.19287547E-02
   0.64350   0.17080654E-02
   0.64450   0.16062176E-02
   0.64550   0.16868415E-02
   0.64650   0.18301064E-02
   0.64750   0.20429275E-02
   0.64850   0.23760626E-02
   0.64950   0.30092909E-02
   0.65050   0.41224752E-02
   0.65150   0.46871547E-02
   0.65250   0.73934118E-02
   0.65350   0.11488987E-01
   0.65450   0.16279114E-01
   0.65550   0.15675521E-01
   0.65650   0.11312117E-01
   0.65750   0.86110067E-02
   0.65850   0.91307294E-02
   0.65950   0.10499143E-01
   0.66050   0.10516522E-01
   0.66150   0.90795634E-02
   0.66250   0.78120809E-02
   0.66350   0.74365740E-02
   0.66450   0.77818809E-02
   0.66550   0.82153175E-02
   0.66650   0.80466876E-02
   0.66750   0.74964832E-02
   0.66850   0.72534997E-02
   0.66950   0.74245138E-02
   0.67050   0.76668942E-02
   0.67150   0.75915898E-02
   0.67250   0.71816109E-02
   0.67350   0.67722164E-02
   0.67450   0.66000405E-02
   0.67550   0.66446140E-02
   0.67650   0.67403717E-02
   0.67750   0.67048124E-02
   0.67850   0.64627226E-02
   0.67950   0.61014127E-02
   0.68050   0.57727443E-02
   0.68150   0.55673406E-02
   0.68250   0.54871584E-02
   0.68350   0.54802699E-02
   0.68450   0.54799812E-02
   0.68550   0.54317825E-02
   0.68650   0.52924119E-02
   0.68750   0.49782535E-02
   0.68850   0.45646201E-02
   0.68950   0.42131152E-02
   0.69050   0.39412654E-02
   0.69150   0.37385512E-02
   0.69250   0.35923079E-02
   0.69350   0.34889348E-02
   0.69450   0.34141096E-02
   0.69550   0.33541236E-02
   0.69650   0.32982400E-02
   0.69750   0.32409856E-02
   0.69850   0.31828992E-02
   0.69950   0.31291067E-02
   0.70050   0.30864966E-02
   0.70150   0.30608429E-02
   0.70250   0.30545963E-02
   0.70350   0.30646869E-02
   0.70450   0.30759466E-02
   0.70550   0.30435496E-02
   0.70650   0.29663374E-02
   0.70750   0.28998700E-02
   0.70850   0.28509800E-02
   0.70950   0.28167120E-02
   0.71050   0.27951016E-02
   0.71150   0.27849583E-02
   0.71250   0.27852820E-02
   0.71350   0.27950066E-02
   0.71450   0.28129788E-02
   0.71550   0.28380586E-02
   0.71650   0.28692521E-02
   0.71750   0.29058161E-02
   0.71850   0.29473049E-02
   0.71950   0.29935613E-02
   0.72050   0.30446700E-02
   0.72150   0.31008981E-02
   0.72250   0.31626539E-02
   0.72350   0.32304809E-02
   0.72450   0.33051113E-02
   0.72550   0.33875969E-02
   0.72650   0.34795890E-02
   0.72750   0.35839430E-02
   0.72850   0.37062245E-02
   0.72950   0.38592238E-02
   0.73050   0.40803766E-02
   0.73150   0.45280722E-02
   0.73250   0.58844555E-02
   0.73350   0.52696285E-02
   0.73450   0.50550480E-02
   0.73550   0.51903618E-02
   0.73650   0.53808084E-02
   0.73750   0.55933837E-02
   0.73850   0.58499356E-02
   0.73950   0.62540537E-02
   0.74050   0.69099343E-02
   0.74150   0.70900791E-02
   0.74250   0.70841610E-02
   0.74350   0.72490135E-02
   0.74450   0.75859344E-02
   0.74550   0.81810765E-02
   0.74650   0.93103722E-02
   0.74750   0.11688362E-01
   0.74850   0.18074911E-01
   0.74950   0.22960812E-01
   0.75050   0.25443999E-01
   0.75150   0.14805456E-01
   0.75250   0.12351776E-01
   0.75350   0.13269704E-01
   0.75450   0.15479044E-01
   0.75550   0.17157737E-01
   0.75650   0.17584221E-01
   0.75750   0.17470425E-01
   0.75850   0.16442183E-01
   0.75950   0.15922900E-01
   0.76050   0.16940085E-01
   0.76150   0.18319186E-01
   0.76250   0.17895577E-01
   0.76350   0.16782487E-01
   0.76450   0.16559932E-01
   0.76550   0.17104072E-01
   0.76650   0.17614150E-01
   0.76750   0.17374385E-01
   0.76850   0.16508481E-01
   0.76950   0.15650241E-01
   0.77050   0.15203683E-01
   0.77150   0.15236313E-01
   0.77250   0.15638104E-01
   0.77350   0.16214740E-01
   0.77450   0.16731225E-01
   0.77550   0.16980749E-01
   0.77650   0.16917223E-01
   0.77750   0.16714178E-01
   0.77850   0.16602973E-01
   0.77950   0.16675595E-01
   0.78050   0.16863342E-01
   0.78150   0.17034141E-01
   0.78250   0.17028464E-01
   0.78350   0.16840843E-01
   0.78450   0.16603511E-01
   0.78550   0.16374350E-01
   0.78650   0.16184939E-01
   0.78750   0.16061375E-01
   0.78850   0.16021816E-01
   0.78950   0.16064754E-01
   0.79050   0.16162792E-01
   0.79150   0.16274426E-01
   0.79250   0.16366607E-01
   0.79350   0.16427048E-01
   0.79450   0.16459318E-01
   0.79550   0.16471677E-01
   0.79650   0.16469924E-01
   0.79750   0.16455939E-01
   0.79850   0.16429346E-01
   0.79950   0.16389931E-01
   0.80050   0.16339466E-01
   0.80150   0.16282363E-01
   0.80250   0.16224995E-01
   0.80350   0.16174011E-01
   0.80450   0.16134743E-01
   0.80550   0.16113598E-01
   0.80650   0.16154319E-01
   0.80750   0.16499404E-01
   0.80850   0.16509784E-01
   0.80950   0.16398264E-01
   0.81050   0.16351363E-01
   0.81150   0.16326992E-01
   0.81250   0.16310200E-01
   0.81350   0.16298426E-01
   0.81450   0.16295159E-01
   0.81550   0.16308079E-01
   0.81650   0.16348535E-01
   0.81750   0.16431544E-01
   0.81850   0.16576314E-01
   0.81950   0.16807782E-01
   0.82050   0.17159706E-01
   0.82150   0.17676715E-01
   0.82250   0.18388398E-01
   0.82350   0.19141536E-01
   0.82450   0.19462066E-01
   0.82550   0.19641615E-01
   0.82650   0.20412084E-01
   0.82750   0.21504091E-01
   0.82850   0.22833556E-01
   0.82950   0.24538636E-01
   0.83050   0.26854934E-01
   0.83150   0.30484781E-01
   0.83250   0.35304103E-01
   0.83350   0.33946387E-01
   0.83450   0.30583840E-01
   0.83550   0.29071411E-01
   0.83650   0.28706443E-01
   0.83750   0.28995292E-01
   0.83850   0.29758111E-01
   0.83950   0.30959329E-01
   0.84050   0.32605585E-01
   0.84150   0.34619648E-01
   0.84250   0.36896687E-01
   0.84350   0.39894067E-01
   0.84450   0.44643272E-01
   0.84550   0.44930182E-01
   0.84650   0.42191740E-01
   0.84750   0.44022985E-01
   0.84850   0.47222137E-01
   0.84950   0.47560830E-01
   0.85050   0.45771915E-01
   0.85150   0.44587146E-01
   0.85250   0.44826549E-01
   0.85350   0.46401698E-01
   0.85450   0.49078733E-01
   0.85550   0.52393802E-01
   0.85650   0.55413865E-01
   0.85750   0.57123173E-01
   0.85850   0.57480525E-01
   0.85950   0.57491060E-01
   0.86050   0.58160875E-01
   0.86150   0.60021672E-01
   0.86250   0.63353114E-01
   0.86350   0.68400018E-01
   0.86450   0.74829541E-01
   0.86550   0.78260645E-01
   0.86650   0.72096691E-01
   0.86750   0.67801096E-01
   0.86850   0.70752032E-01
   0.86950   0.77373199E-01
   0.87050   0.85492909E-01
   0.87150   0.93518764E-01
   0.87250   0.99704899E-01
   0.87350   0.10282840E+00
   0.87450   0.10300642E+00
   0.87550   0.10136199E+00
   0.87650   0.99101193E-01
   0.87750   0.97094342E-01
   0.87850   0.96011922E-01
   0.87950   0.96693926E-01
   0.88050   0.10113528E+00
   0.88150   0.94381019E-01
   0.88250   0.92228517E-01
   0.88350   0.96854672E-01
   0.88450   0.99644355E-01
   0.88550   0.10111174E+00
   0.88650   0.10175727E+00
   0.88750   0.10202444E+00
   0.88850   0.10222175E+00
   0.88950   0.10255267E+00
   0.89050   0.10316801E+00
   0.89150   0.10416692E+00
   0.89250   0.10553766E+00
   0.89350   0.10703588E+00
   0.89450   0.10798875E+00
   0.89550   0.10769894E+00
   0.89650   0.10731210E+00
   0.89750   0.10808334E+00
   0.89850   0.10952862E+00
   0.89950   0.11122014E+00
   0.90050   0.11341360E+00
   0.90150   0.11662953E+00
   0.90250   0.12004586E+00
   0.90350   0.12399426E+00
   0.90450   0.12856042E+00
   0.90550   0.13355161E+00
   0.90650   0.13888995E+00
   0.90750   0.14460029E+00
   0.90850   0.15056641E+00
   0.90950   0.15625858E+00
   0.91050   0.16139232E+00
   0.91150   0.16605590E+00
   0.91250   0.17007922E+00
   0.91350   0.17377985E+00
   0.91450   0.17874759E+00
   0.91550   0.18590951E+00
   0.91650   0.19503167E+00
   0.91750   0.20607187E+00
   0.91850   0.21897548E+00
   0.91950   0.23052001E+00
   0.92050   0.23366892E+00
   0.92150   0.23221120E+00
   0.92250   0.23218217E+00
   0.92350   0.23288465E+00
   0.92450   0.23409194E+00
   0.92550   0.23642820E+00
   0.92650   0.24002311E+00
   0.92750   0.24466309E+00
   0.92850   0.25012818E+00
   0.92950   0.25625402E+00
   0.93050   0.26290834E+00
   0.93150   0.27000502E+00
   0.93250   0.27756870E+00
   0.93350   0.28579149E+00
   0.93450   0.29504800E+00
   0.93550   0.30612248E+00
   0.93650   0.31795850E+00
   0.93750   0.32737556E+00
   0.93850   0.33728996E+00
   0.93950   0.34784099E+00
   0.94050   0.35871837E+00
   0.94150   0.36958116E+00
   0.94250   0.38017634E+00
   0.94350   0.39047173E+00
   0.94450   0.40063778E+00
   0.94550   0.41138843E+00
   0.94650   0.42314571E+00
   0.94750   0.43484306E+00
   0.94850   0.44560018E+00
   0.94950   0.45584929E+00
   0.95050   0.46665937E+00
   0.95150   0.47843847E+00
   0.95250   0.49100599E+00
   0.95350   0.50420576E+00
   0.95450   0.51848984E+00
   0.95550   0.53607160E+00
   0.95650   0.55845529E+00
   0.95750   0.58252919E+00
   0.95850   0.60744286E+00
   0.95950   0.63331300E+00
   0.96050   0.66019821E+00
   0.96150   0.68802845E+00
   0.96250   0.71664095E+00
   0.96350   0.74582589E+00
   0.96450   0.77537042E+00
   0.96550   0.80510169E+00
   0.96650   0.83493114E+00
   0.96750   0.86491197E+00
   0.96850   0.89532387E+00
   0.96950   0.92675984E+00
   0.97050   0.96008885E+00
   0.97150   0.99613434E+00
   0.97250   0.10351373E+01
   0.97350   0.10763911E+01
   0.97450   0.11184956E+01
   0.97550   0.11604153E+01
   0.97650   0.12029309E+01
   0.97750   0.12476398E+01
   0.97850   0.12953707E+01
   0.97950   0.13455147E+01
   0.98050   0.13934017E+01
   0.98150   0.14269652E+01
   0.98250   0.14406906E+01
   0.98350   0.14467461E+01
   0.98450   0.14593128E+01
   0.98550   0.14908079E+01
   0.98650   0.15544238E+01
   0.98750   0.16537340E+01
   0.98850   0.17683464E+01
   0.98950   0.18713260E+01
   0.99050   0.19456711E+01
   0.99150   0.19960477E+01
   0.99250   0.20299034E+01
   0.99350   0.20530012E+01
   0.99450   0.20708680E+01
   0.99550   0.20891633E+01
   0.99650   0.21110170E+01
   0.99750   0.21376729E+01
   0.99850   0.21691654E+01
   0.99950   0.22064128E+01
