# Transmission, k-averaged
# Date: 2021-05-13
#   E [eV]           T [G0]
   0.00050   0.24561461E-01
   0.00150   0.19435447E-02
   0.00250   0.87003870E-03
   0.00350   0.66760378E-02
   0.00450   0.28509922E-01
   0.00550   0.37673969E-01
   0.00650   0.29945234E-01
   0.00750   0.84870141E-02
   0.00850   0.86488854E-02
   0.00950   0.20906618E-01
   0.01050   0.54212548E-02
   0.01150   0.21608377E-01
   0.01250   0.61849738E-02
   0.01350   0.78467876E-02
   0.01450   0.19698113E-01
   0.01550   0.41538114E-02
   0.01650   0.12342677E-01
   0.01750   0.12282255E-01
   0.01850   0.33686990E-02
   0.01950   0.62620859E-02
   0.02050   0.22217896E-01
   0.02150   0.34228649E-02
   0.02250   0.25454538E-02
   0.02350   0.66272514E-02
   0.02450   0.99818781E-02
   0.02550   0.24334479E-02
   0.02650   0.17382939E-02
   0.02750   0.29612482E-02
   0.02850   0.81804441E-02
   0.02950   0.30752739E-02
   0.03050   0.14296197E-02
   0.03150   0.13438524E-02
   0.03250   0.23667996E-02
   0.03350   0.53599579E-02
   0.03450   0.27750591E-02
   0.03550   0.13433617E-02
   0.03650   0.11183302E-02
   0.03750   0.15328940E-02
   0.03850   0.33277147E-02
   0.03950   0.46662292E-02
   0.04050   0.22183163E-02
   0.04150   0.13976570E-02
   0.04250   0.14188223E-02
   0.04350   0.23351307E-02
   0.04450   0.57275328E-02
   0.04550   0.69273775E-02
   0.04650   0.44514812E-02
   0.04750   0.33750529E-02
   0.04850   0.31964770E-02
   0.04950   0.36543973E-02
   0.05050   0.47427742E-02
   0.05150   0.60696309E-02
   0.05250   0.62874430E-02
   0.05350   0.52711512E-02
   0.05450   0.43154056E-02
   0.05550   0.38945735E-02
   0.05650   0.40006540E-02
   0.05750   0.46204617E-02
   0.05850   0.56901346E-02
   0.05950   0.67002219E-02
   0.06050   0.67493767E-02
   0.06150   0.59298887E-02
   0.06250   0.51137945E-02
   0.06350   0.47197137E-02
   0.06450   0.48076659E-02
   0.06550   0.53755231E-02
   0.06650   0.63476027E-02
   0.06750   0.73134420E-02
   0.06850   0.75210808E-02
   0.06950   0.68308422E-02
   0.07050   0.59278766E-02
   0.07150   0.53251260E-02
   0.07250   0.51518041E-02
   0.07350   0.54034768E-02
   0.07450   0.60297260E-02
   0.07550   0.68305377E-02
   0.07650   0.73288339E-02
   0.07750   0.70993020E-02
   0.07850   0.63451752E-02
   0.07950   0.55877892E-02
   0.08050   0.51188804E-02
   0.08150   0.50054714E-02
   0.08250   0.52381898E-02
   0.08350   0.57655955E-02
   0.08450   0.64172079E-02
   0.08550   0.68328716E-02
   0.08650   0.66922512E-02
   0.08750   0.61094612E-02
   0.08850   0.54782359E-02
   0.08950   0.50736838E-02
   0.09050   0.49981349E-02
   0.09150   0.52616554E-02
   0.09250   0.56637870E-02
   0.09350   0.58589815E-02
   0.09450   0.56999903E-02
   0.09550   0.52035269E-02
   0.09650   0.45791506E-02
   0.09750   0.40305522E-02
   0.09850   0.36452252E-02
   0.09950   0.34284675E-02
   0.10050   0.33521564E-02
   0.10150   0.33728820E-02
   0.10250   0.34313567E-02
   0.10350   0.34558414E-02
   0.10450   0.33880966E-02
   0.10550   0.32194499E-02
   0.10650   0.29939611E-02
   0.10750   0.27717678E-02
   0.10850   0.25954358E-02
   0.10950   0.24824734E-02
   0.11050   0.24318709E-02
   0.11150   0.24302814E-02
   0.11250   0.24544960E-02
   0.11350   0.24741022E-02
   0.11450   0.24597328E-02
   0.11550   0.23964103E-02
   0.11650   0.22915644E-02
   0.11750   0.21688698E-02
   0.11850   0.20540147E-02
   0.11950   0.19646571E-02
   0.12050   0.19081648E-02
   0.12150   0.18832793E-02
   0.12250   0.18820115E-02
   0.12350   0.18910848E-02
   0.12450   0.18943530E-02
   0.12550   0.18775871E-02
   0.12650   0.18343779E-02
   0.12750   0.17689890E-02
   0.12850   0.16934827E-02
   0.12950   0.16215609E-02
   0.13050   0.15636485E-02
   0.13150   0.15250633E-02
   0.13250   0.15062356E-02
   0.13350   0.15034970E-02
   0.13450   0.15099033E-02
   0.13550   0.15164876E-02
   0.13650   0.15145211E-02
   0.13750   0.14985130E-02
   0.13850   0.14684079E-02
   0.13950   0.14293713E-02
   0.14050   0.13893008E-02
   0.14150   0.13558373E-02
   0.14250   0.13344174E-02
   0.14350   0.13276043E-02
   0.14450   0.13351344E-02
   0.14550   0.13541828E-02
   0.14650   0.13797983E-02
   0.14750   0.14057982E-02
   0.14850   0.14263537E-02
   0.14950   0.14379277E-02
   0.15050   0.14406079E-02
   0.15150   0.14379916E-02
   0.15250   0.14357303E-02
   0.15350   0.14396629E-02
   0.15450   0.14543866E-02
   0.15550   0.14824885E-02
   0.15650   0.15242220E-02
   0.15750   0.15774088E-02
   0.15850   0.16375975E-02
   0.15950   0.16987410E-02
   0.16050   0.17546018E-02
   0.16150   0.18006382E-02
   0.16250   0.18355623E-02
   0.16350   0.18617067E-02
   0.16450   0.18840176E-02
   0.16550   0.19082982E-02
   0.16650   0.19395215E-02
   0.16750   0.19806339E-02
   0.16850   0.20318395E-02
   0.16950   0.20902161E-02
   0.17050   0.21496494E-02
   0.17150   0.22012044E-02
   0.17250   0.22338622E-02
   0.17350   0.22343823E-02
   0.17450   0.21812613E-02
   0.17550   0.20258252E-02
   0.17650   0.17863360E-02
   0.17750   0.15888610E-02
   0.17850   0.14402388E-02
   0.17950   0.13228344E-02
   0.18050   0.12255041E-02
   0.18150   0.11414062E-02
   0.18250   0.10660539E-02
   0.18350   0.99641189E-03
   0.18450   0.93048846E-03
   0.18550   0.86712925E-03
   0.18650   0.80587453E-03
   0.18750   0.74680895E-03
   0.18850   0.69038459E-03
   0.18950   0.63723023E-03
   0.19050   0.58797619E-03
   0.19150   0.54312358E-03
   0.19250   0.50297106E-03
   0.19350   0.46759719E-03
   0.19450   0.43688301E-03
   0.19550   0.41055810E-03
   0.19650   0.38825517E-03
   0.19750   0.36956390E-03
   0.19850   0.35407773E-03
   0.19950   0.34143051E-03
   0.20050   0.33132042E-03
   0.20150   0.32351911E-03
   0.20250   0.31786715E-03
   0.20350   0.31425757E-03
   0.20450   0.31261242E-03
   0.20550   0.31285698E-03
   0.20650   0.31489573E-03
   0.20750   0.31859326E-03
   0.20850   0.32376125E-03
   0.20950   0.33015429E-03
   0.21050   0.33747533E-03
   0.21150   0.34539250E-03
   0.21250   0.35356602E-03
   0.21350   0.36168130E-03
   0.21450   0.36948166E-03
   0.21550   0.37679987E-03
   0.21650   0.38365214E-03
   0.21750   0.39095056E-03
   0.21850   0.40112692E-03
   0.21950   0.41364221E-03
   0.22050   0.42749959E-03
   0.22150   0.44253599E-03
   0.22250   0.45875003E-03
   0.22350   0.47612624E-03
   0.22450   0.49460051E-03
   0.22550   0.51406841E-03
   0.22650   0.53441914E-03
   0.22750   0.55558915E-03
   0.22850   0.57763141E-03
   0.22950   0.60079515E-03
   0.23050   0.62561245E-03
   0.23150   0.65298117E-03
   0.23250   0.68414689E-03
   0.23350   0.71966852E-03
   0.23450   0.74991025E-03
   0.23550   0.74381323E-03
   0.23650   0.71593811E-03
   0.23750   0.68626832E-03
   0.23850   0.65814430E-03
   0.23950   0.63154777E-03
   0.24050   0.60601300E-03
   0.24150   0.58111653E-03
   0.24250   0.55655290E-03
   0.24350   0.53212087E-03
   0.24450   0.50768710E-03
   0.24550   0.48314856E-03
   0.24650   0.45840413E-03
   0.24750   0.43334285E-03
   0.24850   0.40785526E-03
   0.24950   0.38187442E-03
   0.25050   0.35545227E-03
   0.25150   0.32887320E-03
   0.25250   0.30279526E-03
   0.25350   0.27838507E-03
   0.25450   0.25737815E-03
   0.25550   0.24196706E-03
   0.25650   0.23443403E-03
   0.25750   0.23654356E-03
   0.25850   0.24887637E-03
   0.25950   0.27041303E-03
   0.26050   0.29862177E-03
   0.26150   0.33005714E-03
   0.26250   0.36120578E-03
   0.26350   0.38922316E-03
   0.26450   0.41232657E-03
   0.26550   0.42981698E-03
   0.26650   0.44185112E-03
   0.26750   0.44912222E-03
   0.26850   0.45256742E-03
   0.26950   0.45315656E-03
   0.27050   0.45176828E-03
   0.27150   0.44913471E-03
   0.27250   0.44583034E-03
   0.27350   0.44228480E-03
   0.27450   0.43880494E-03
   0.27550   0.43559886E-03
   0.27650   0.43279701E-03
   0.27750   0.43046975E-03
   0.27850   0.42864072E-03
   0.27950   0.42729566E-03
   0.28050   0.42638733E-03
   0.28150   0.42583485E-03
   0.28250   0.42551555E-03
   0.28350   0.42524634E-03
   0.28450   0.42474963E-03
   0.28550   0.42359892E-03
   0.28650   0.42114485E-03
   0.28750   0.41644255E-03
   0.28850   0.40826303E-03
   0.28950   0.39541817E-03
   0.29050   0.37784551E-03
   0.29150   0.35872858E-03
   0.29250   0.34571564E-03
   0.29350   0.34469838E-03
   0.29450   0.34556171E-03
   0.29550   0.32482261E-03
   0.29650   0.27375776E-03
   0.29750   0.20672385E-03
   0.29850   0.14082233E-03
   0.29950   0.86228596E-04
   0.30050   0.51187417E-04
   0.30150   0.31020274E-04
   0.30250   0.19430367E-04
   0.30350   0.12718183E-04
   0.30450   0.88094321E-05
   0.30550   0.65289037E-05
   0.30650   0.52021355E-05
   0.30750   0.44375283E-05
   0.30850   0.40054988E-05
   0.30950   0.37704763E-05
   0.31050   0.36520737E-05
   0.31150   0.36026040E-05
   0.31250   0.35938940E-05
   0.31350   0.36094577E-05
   0.31450   0.36398071E-05
   0.31550   0.36796232E-05
   0.31650   0.37260411E-05
   0.31750   0.37776119E-05
   0.31850   0.38336775E-05
   0.31950   0.38939988E-05
   0.32050   0.39585398E-05
   0.32150   0.40273499E-05
   0.32250   0.41005046E-05
   0.32350   0.41780813E-05
   0.32450   0.42601546E-05
   0.32550   0.43468076E-05
   0.32650   0.44381454E-05
   0.32750   0.45343095E-05
   0.32850   0.46354958E-05
   0.32950   0.47419653E-05
   0.33050   0.48540560E-05
   0.33150   0.49721889E-05
   0.33250   0.50968670E-05
   0.33350   0.52286719E-05
   0.33450   0.53682529E-05
   0.33550   0.55163091E-05
   0.33650   0.56735612E-05
   0.33750   0.58407195E-05
   0.33850   0.60184361E-05
   0.33950   0.62072531E-05
   0.34050   0.64075348E-05
   0.34150   0.66193961E-05
   0.34250   0.68426157E-05
   0.34350   0.70765504E-05
   0.34450   0.73200431E-05
   0.34550   0.75713369E-05
   0.34650   0.78280054E-05
   0.34750   0.80868977E-05
   0.34850   0.83441264E-05
   0.34950   0.85950996E-05
   0.35050   0.88346014E-05
   0.35150   0.90569529E-05
   0.35250   0.92562223E-05
   0.35350   0.94265079E-05
   0.35450   0.95622463E-05
   0.35550   0.96585209E-05
   0.35650   0.97112870E-05
   0.35750   0.97173743E-05
   0.35850   0.96739268E-05
   0.35950   0.95762889E-05
   0.36050   0.94106435E-05
   0.36150   0.91242900E-05
   0.36250   0.85173078E-05
   0.36350   0.74773061E-05
   0.36450   0.65023260E-05
   0.36550   0.57225775E-05
   0.36650   0.50943477E-05
   0.36750   0.45800057E-05
   0.36850   0.41546509E-05
   0.36950   0.38013181E-05
   0.37050   0.35078865E-05
   0.37150   0.32653916E-05
   0.37250   0.30670947E-05
   0.37350   0.29079611E-05
   0.37450   0.27843803E-05
   0.37550   0.26940550E-05
   0.37650   0.26360435E-05
   0.37750   0.26109867E-05
   0.37850   0.26215971E-05
   0.37950   0.26734190E-05
   0.38050   0.27743788E-05
   0.38150   0.29141661E-05
   0.38250   0.29536907E-05
   0.38350   0.28325937E-05
   0.38450   0.26834089E-05
   0.38550   0.25480924E-05
   0.38650   0.24323756E-05
   0.38750   0.23352495E-05
   0.38850   0.22546035E-05
   0.38950   0.21884250E-05
   0.39050   0.21350609E-05
   0.39150   0.20932439E-05
   0.39250   0.20620655E-05
   0.39350   0.20409343E-05
   0.39450   0.20295338E-05
   0.39550   0.20277814E-05
   0.39650   0.20357841E-05
   0.39750   0.20537873E-05
   0.39850   0.20821151E-05
   0.39950   0.21210935E-05
   0.40050   0.21709557E-05
   0.40150   0.22317226E-05
   0.40250   0.23030591E-05
   0.40350   0.23841039E-05
   0.40450   0.24732797E-05
   0.40550   0.25680895E-05
   0.40650   0.26649161E-05
   0.40750   0.27588333E-05
   0.40850   0.28434299E-05
   0.40950   0.29105856E-05
   0.41050   0.29499593E-05
   0.41150   0.29473752E-05
   0.41250   0.28790855E-05
   0.41350   0.26911432E-05
   0.41450   0.22992131E-05
   0.41550   0.18672455E-05
   0.41650   0.15392096E-05
   0.41750   0.12860957E-05
   0.41850   0.10815176E-05
   0.41950   0.91174087E-06
   0.42050   0.76923453E-06
   0.42150   0.64935244E-06
   0.42250   0.54880729E-06
   0.42350   0.46496748E-06
   0.42450   0.39554644E-06
   0.42550   0.33848164E-06
   0.42650   0.29190073E-06
   0.42750   0.25412115E-06
   0.42850   0.22365646E-06
   0.42950   0.19921781E-06
   0.43050   0.17970751E-06
   0.43150   0.16420526E-06
   0.43250   0.15194979E-06
   0.43350   0.14231824E-06
   0.43450   0.13480535E-06
   0.43550   0.12900401E-06
   0.43650   0.12458774E-06
   0.43750   0.12129561E-06
   0.43850   0.11891959E-06
   0.43950   0.11729402E-06
   0.44050   0.11628713E-06
   0.44150   0.11579419E-06
   0.44250   0.11573209E-06
   0.44350   0.11603495E-06
   0.44450   0.11665072E-06
   0.44550   0.11753852E-06
   0.44650   0.11866646E-06
   0.44750   0.12001006E-06
   0.44850   0.12155098E-06
   0.44950   0.12327621E-06
   0.45050   0.12517744E-06
   0.45150   0.12725097E-06
   0.45250   0.12949799E-06
   0.45350   0.13192545E-06
   0.45450   0.13454779E-06
   0.45550   0.13738999E-06
   0.45650   0.14049233E-06
   0.45750   0.14391790E-06
   0.45850   0.14776377E-06
   0.45950   0.15217668E-06
   0.46050   0.15737319E-06
   0.46150   0.16366037E-06
   0.46250   0.17144599E-06
   0.46350   0.18121169E-06
   0.46450   0.19340558E-06
   0.46550   0.20820727E-06
   0.46650   0.22517563E-06
   0.46750   0.24294289E-06
   0.46850   0.25928330E-06
   0.46950   0.27179019E-06
   0.47050   0.27889701E-06
   0.47150   0.28053202E-06
   0.47250   0.27794886E-06
   0.47350   0.27298788E-06
   0.47450   0.26735626E-06
   0.47550   0.26226397E-06
   0.47650   0.25839086E-06
   0.47750   0.25601491E-06
   0.47850   0.25516727E-06
   0.47950   0.25575298E-06
   0.48050   0.25762827E-06
   0.48150   0.26064333E-06
   0.48250   0.26466256E-06
   0.48350   0.26957235E-06
   0.48450   0.27528262E-06
   0.48550   0.28172516E-06
   0.48650   0.28885134E-06
   0.48750   0.29662979E-06
   0.48850   0.30504455E-06
   0.48950   0.31409405E-06
   0.49050   0.32379126E-06
   0.49150   0.33416541E-06
   0.49250   0.34526644E-06
   0.49350   0.35717440E-06
   0.49450   0.37002036E-06
   0.49550   0.38403653E-06
   0.49650   0.39969845E-06
   0.49750   0.41818492E-06
   0.49850   0.44176292E-06
   0.49950   0.46818386E-06
   0.50050   0.49410977E-06
   0.50150   0.52003242E-06
   0.50250   0.54676059E-06
   0.50350   0.57508652E-06
   0.50450   0.60599143E-06
   0.50550   0.64080427E-06
   0.50650   0.68100991E-06
   0.50750   0.72665421E-06
   0.50850   0.77201400E-06
   0.50950   0.80400429E-06
   0.51050   0.81738301E-06
   0.51150   0.82584108E-06
   0.51250   0.84211712E-06
   0.51350   0.86759172E-06
   0.51450   0.89954096E-06
   0.51550   0.93584674E-06
   0.51650   0.97553800E-06
   0.51750   0.10184413E-05
   0.51850   0.10650691E-05
   0.51950   0.11171854E-05
   0.52050   0.11802501E-05
   0.52150   0.12600149E-05
   0.52250   0.13444898E-05
   0.52350   0.14287557E-05
   0.52450   0.15140229E-05
   0.52550   0.16014534E-05
   0.52650   0.16919024E-05
   0.52750   0.17860945E-05
   0.52850   0.18847761E-05
   0.52950   0.19889112E-05
   0.53050   0.21000769E-05
   0.53150   0.22213862E-05
   0.53250   0.23584846E-05
   0.53350   0.25062589E-05
   0.53450   0.26295845E-05
   0.53550   0.27786596E-05
   0.53650   0.29441087E-05
   0.53750   0.31118670E-05
   0.53850   0.32865096E-05
   0.53950   0.34703889E-05
   0.54050   0.36646388E-05
   0.54150   0.38701196E-05
   0.54250   0.40876739E-05
   0.54350   0.43181926E-05
   0.54450   0.45626361E-05
   0.54550   0.48220436E-05
   0.54650   0.50975427E-05
   0.54750   0.53903564E-05
   0.54850   0.57018133E-05
   0.54950   0.60333596E-05
   0.55050   0.63865700E-05
   0.55150   0.67631613E-05
   0.55250   0.71650079E-05
   0.55350   0.75941589E-05
   0.55450   0.80528562E-05
   0.55550   0.85435568E-05
   0.55650   0.90689555E-05
   0.55750   0.96320136E-05
   0.55850   0.10235989E-04
   0.55950   0.10884468E-04
   0.56050   0.11581409E-04
   0.56150   0.12331186E-04
   0.56250   0.13138635E-04
   0.56350   0.14009120E-04
   0.56450   0.14948592E-04
   0.56550   0.15963673E-04
   0.56650   0.17061735E-04
   0.56750   0.18251012E-04
   0.56850   0.19540706E-04
   0.56950   0.20941134E-04
   0.57050   0.22463877E-04
   0.57150   0.24121964E-04
   0.57250   0.25930096E-04
   0.57350   0.27904884E-04
   0.57450   0.30065150E-04
   0.57550   0.32432275E-04
   0.57650   0.35030611E-04
   0.57750   0.37887956E-04
   0.57850   0.41036161E-04
   0.57950   0.44511791E-04
   0.58050   0.48356989E-04
   0.58150   0.52620460E-04
   0.58250   0.57358699E-04
   0.58350   0.62637475E-04
   0.58450   0.68533642E-04
   0.58550   0.75137366E-04
   0.58650   0.82554892E-04
   0.58750   0.90911963E-04
   0.58850   0.10035814E-03
   0.58950   0.11107217E-03
   0.59050   0.12326888E-03
   0.59150   0.13720791E-03
   0.59250   0.15320504E-03
   0.59350   0.17164678E-03
   0.59450   0.19300959E-03
   0.59550   0.21788524E-03
   0.59650   0.24701469E-03
   0.59750   0.28133389E-03
   0.59850   0.32203633E-03
   0.59950   0.37066004E-03
   0.60050   0.42921057E-03
   0.60150   0.50033978E-03
   0.60250   0.58761862E-03
   0.60350   0.69599471E-03
   0.60450   0.83272153E-03
   0.60550   0.10099272E-02
   0.60650   0.12539034E-02
   0.60750   0.16283445E-02
   0.60850   0.21710563E-02
   0.60950   0.28300984E-02
   0.61050   0.37355316E-02
   0.61150   0.51464909E-02
   0.61250   0.75759743E-02
   0.61350   0.12587225E-01
   0.61450   0.27941996E-01
   0.61550   0.92205703E-01
   0.61650   0.19322747E+00
   0.61750   0.12941299E+00
   0.61850   0.83769657E-01
   0.61950   0.56637645E-01
   0.62050   0.46435758E-01
   0.62150   0.46765082E-01
   0.62250   0.52408103E-01
   0.62350   0.59971973E-01
   0.62450   0.67882478E-01
   0.62550   0.75320706E-01
   0.62650   0.81420600E-01
   0.62750   0.85521810E-01
   0.62850   0.87514393E-01
   0.62950   0.87931924E-01
   0.63050   0.88012047E-01
   0.63150   0.89902006E-01
   0.63250   0.83989576E-01
   0.63350   0.81344388E-01
   0.63450   0.78482613E-01
   0.63550   0.77633657E-01
   0.63650   0.77368572E-01
   0.63750   0.77750646E-01
   0.63850   0.79106443E-01
   0.63950   0.82175687E-01
   0.64050   0.88564679E-01
   0.64150   0.10695967E+00
   0.64250   0.13535070E+00
   0.64350   0.20445426E+00
   0.64450   0.55987763E+00
   0.64550   0.77169156E+00
   0.64650   0.47282550E+00
   0.64750   0.12070321E+00
   0.64850   0.13907889E+00
   0.64950   0.10292783E+00
   0.65050   0.81019647E-01
   0.65150   0.55094805E-01
   0.65250   0.38914353E-01
   0.65350   0.27761744E-01
   0.65450   0.20930281E-01
   0.65550   0.16727930E-01
   0.65650   0.13115901E-01
   0.65750   0.10584913E-01
   0.65850   0.92567243E-02
   0.65950   0.84846979E-02
   0.66050   0.75494256E-02
   0.66150   0.62179626E-02
   0.66250   0.47196005E-02
   0.66350   0.33910780E-02
   0.66450   0.24379625E-02
   0.66550   0.18790390E-02
   0.66650   0.15996130E-02
   0.66750   0.14542063E-02
   0.66850   0.13442308E-02
   0.66950   0.12330416E-02
   0.67050   0.11209763E-02
   0.67150   0.10173015E-02
   0.67250   0.92648627E-03
   0.67350   0.84719731E-03
   0.67450   0.77610294E-03
   0.67550   0.71094435E-03
   0.67650   0.65133668E-03
   0.67750   0.59801404E-03
   0.67850   0.55170088E-03
   0.67950   0.51240833E-03
   0.68050   0.47938267E-03
   0.68150   0.45149599E-03
   0.68250   0.42770637E-03
   0.68350   0.40730136E-03
   0.68450   0.38985329E-03
   0.68550   0.37500268E-03
   0.68650   0.36226597E-03
   0.68750   0.35116915E-03
   0.68850   0.34159087E-03
   0.68950   0.33305795E-03
   0.69050   0.32494692E-03
   0.69150   0.31687049E-03
   0.69250   0.30878113E-03
   0.69350   0.30093317E-03
   0.69450   0.29374342E-03
   0.69550   0.28761369E-03
   0.69650   0.28278021E-03
   0.69750   0.27923609E-03
   0.69850   0.27674186E-03
   0.69950   0.27490911E-03
   0.70050   0.27332272E-03
   0.70150   0.27166010E-03
   0.70250   0.26977563E-03
   0.70350   0.26773982E-03
   0.70450   0.26586733E-03
   0.70550   0.26472297E-03
   0.70650   0.26431741E-03
   0.70750   0.26425338E-03
   0.70850   0.26440038E-03
   0.70950   0.26460775E-03
   0.71050   0.26473048E-03
   0.71150   0.26468662E-03
   0.71250   0.26448211E-03
   0.71350   0.26420545E-03
   0.71450   0.26400163E-03
   0.71550   0.26403574E-03
   0.71650   0.26445664E-03
   0.71750   0.26536934E-03
   0.71850   0.26682054E-03
   0.71950   0.26879841E-03
   0.72050   0.27124415E-03
   0.72150   0.27407089E-03
   0.72250   0.27718517E-03
   0.72350   0.28050595E-03
   0.72450   0.28397891E-03
   0.72550   0.28758455E-03
   0.72650   0.29134133E-03
   0.72750   0.29530682E-03
   0.72850   0.29958284E-03
   0.72950   0.30433829E-03
   0.73050   0.30989101E-03
   0.73150   0.31699066E-03
   0.73250   0.32707726E-03
   0.73350   0.33860098E-03
   0.73450   0.34913258E-03
   0.73550   0.35892017E-03
   0.73650   0.36834061E-03
   0.73750   0.37760969E-03
   0.73850   0.38685929E-03
   0.73950   0.39618032E-03
   0.74050   0.40564194E-03
   0.74150   0.41530046E-03
   0.74250   0.42520362E-03
   0.74350   0.43539389E-03
   0.74450   0.44591102E-03
   0.74550   0.45679518E-03
   0.74650   0.46808942E-03
   0.74750   0.47984149E-03
   0.74850   0.49210427E-03
   0.74950   0.50493452E-03
   0.75050   0.51838934E-03
   0.75150   0.53252163E-03
   0.75250   0.54737425E-03
   0.75350   0.56297384E-03
   0.75450   0.57932601E-03
   0.75550   0.59641222E-03
   0.75650   0.61418902E-03
   0.75750   0.63259061E-03
   0.75850   0.65153447E-03
   0.75950   0.67092996E-03
   0.76050   0.69068879E-03
   0.76150   0.71073690E-03
   0.76250   0.73102635E-03
   0.76350   0.75154600E-03
   0.76450   0.77233004E-03
   0.76550   0.79346373E-03
   0.76650   0.81508560E-03
   0.76750   0.83738606E-03
   0.76850   0.86060265E-03
   0.76950   0.88501244E-03
   0.77050   0.91092254E-03
   0.77150   0.93865918E-03
   0.77250   0.96855673E-03
   0.77350   0.10009477E-02
   0.77450   0.10361547E-02
   0.77550   0.10744870E-02
   0.77650   0.11162427E-02
   0.77750   0.11617235E-02
   0.77850   0.12112746E-02
   0.77950   0.12653854E-02
   0.78050   0.13249606E-02
   0.78150   0.13919066E-02
   0.78250   0.14663445E-02
   0.78350   0.15400611E-02
   0.78450   0.16109621E-02
   0.78550   0.16800972E-02
   0.78650   0.17480532E-02
   0.78750   0.18152450E-02
   0.78850   0.18821365E-02
   0.78950   0.19493274E-02
   0.79050   0.20175776E-02
   0.79150   0.20877982E-02
   0.79250   0.21610218E-02
   0.79350   0.22383607E-02
   0.79450   0.23209588E-02
   0.79550   0.24099408E-02
   0.79650   0.25063665E-02
   0.79750   0.26111910E-02
   0.79850   0.27252391E-02
   0.79950   0.28491889E-02
   0.80050   0.29835736E-02
   0.80150   0.31287954E-02
   0.80250   0.32851540E-02
   0.80350   0.34528843E-02
   0.80450   0.36322023E-02
   0.80550   0.38233562E-02
   0.80650   0.40266742E-02
   0.80750   0.42426116E-02
   0.80850   0.44717873E-02
   0.80950   0.47150133E-02
   0.81050   0.49733063E-02
   0.81150   0.52478933E-02
   0.81250   0.55401996E-02
   0.81350   0.58518313E-02
   0.81450   0.61845514E-02
   0.81550   0.65402570E-02
   0.81650   0.69209686E-02
   0.81750   0.73288339E-02
   0.81850   0.77661653E-02
   0.81950   0.82355207E-02
   0.82050   0.87398523E-02
   0.82150   0.92827631E-02
   0.82250   0.98689524E-02
   0.82350   0.10505049E-01
   0.82450   0.11201008E-01
   0.82550   0.11966789E-01
   0.82650   0.12765490E-01
   0.82750   0.13553976E-01
   0.82850   0.14360853E-01
   0.82950   0.15208016E-01
   0.83050   0.16108919E-01
   0.83150   0.17074734E-01
   0.83250   0.18116474E-01
   0.83350   0.19245971E-01
   0.83450   0.20476613E-01
   0.83550   0.21824207E-01
   0.83650   0.23308208E-01
   0.83750   0.24953712E-01
   0.83850   0.26795242E-01
   0.83950   0.28886100E-01
   0.84050   0.31333759E-01
   0.84150   0.34550812E-01
   0.84250   0.45563627E-01
   0.84350   0.48601080E-01
   0.84450   0.47231913E-01
   0.84550   0.51996943E-01
   0.84650   0.59680860E-01
   0.84750   0.76327614E-01
   0.84850   0.10095655E+00
   0.84950   0.99577218E-01
   0.85050   0.10970691E+00
   0.85150   0.13896652E+00
   0.85250   0.14226013E+00
   0.85350   0.16853878E+00
   0.85450   0.19444141E+00
   0.85550   0.17647310E+00
   0.85650   0.19383812E+00
   0.85750   0.24990635E+00
   0.85850   0.29354694E+00
   0.85950   0.30316600E+00
   0.86050   0.35549819E+00
   0.86150   0.66237795E+00
   0.86250   0.92971611E+00
   0.86350   0.97548723E+00
   0.86450   0.11360567E+01
   0.86550   0.10684885E+01
   0.86650   0.11130561E+01
   0.86750   0.12516644E+01
   0.86850   0.15636047E+01
   0.86950   0.16110128E+01
   0.87050   0.15431321E+01
   0.87150   0.15990437E+01
   0.87250   0.16506813E+01
   0.87350   0.16309553E+01
   0.87450   0.15620657E+01
   0.87550   0.14440829E+01
   0.87650   0.12191325E+01
   0.87750   0.10494279E+01
   0.87850   0.97840542E+00
   0.87950   0.90648907E+00
   0.88050   0.85007650E+00
   0.88150   0.81610578E+00
   0.88250   0.79660910E+00
   0.88350   0.77658576E+00
   0.88450   0.73852193E+00
   0.88550   0.67443138E+00
   0.88650   0.60753810E+00
   0.88750   0.57046270E+00
   0.88850   0.56310278E+00
   0.88950   0.56961012E+00
   0.89050   0.57388699E+00
   0.89150   0.57440364E+00
   0.89250   0.59069145E+00
   0.89350   0.61726338E+00
   0.89450   0.61105591E+00
   0.89550   0.58178800E+00
   0.89650   0.54662794E+00
   0.89750   0.51364481E+00
   0.89850   0.48607260E+00
   0.89950   0.46453297E+00
   0.90050   0.44848955E+00
   0.90150   0.43641344E+00
   0.90250   0.42565233E+00
   0.90350   0.41348359E+00
   0.90450   0.39965534E+00
   0.90550   0.38463145E+00
   0.90650   0.36876404E+00
   0.90750   0.35236984E+00
   0.90850   0.33573705E+00
   0.90950   0.31915259E+00
   0.91050   0.30299431E+00
   0.91150   0.28787038E+00
   0.91250   0.27467439E+00
   0.91350   0.26429591E+00
   0.91450   0.25694874E+00
   0.91550   0.25179851E+00
   0.91650   0.24751127E+00
   0.91750   0.24308653E+00
   0.91850   0.23812516E+00
   0.91950   0.23262925E+00
   0.92050   0.22675452E+00
   0.92150   0.22067311E+00
   0.92250   0.21452367E+00
   0.92350   0.20840363E+00
   0.92450   0.20238385E+00
   0.92550   0.19653995E+00
   0.92650   0.19099200E+00
   0.92750   0.18593249E+00
   0.92850   0.18161786E+00
   0.92950   0.17830944E+00
   0.93050   0.17617805E+00
   0.93150   0.17521681E+00
   0.93250   0.17521970E+00
   0.93350   0.17585580E+00
   0.93450   0.17681165E+00
   0.93550   0.17792930E+00
   0.93650   0.17926443E+00
   0.93750   0.18102239E+00
   0.93850   0.18339010E+00
   0.93950   0.18635961E+00
   0.94050   0.18967620E+00
   0.94150   0.19296575E+00
   0.94250   0.19596836E+00
   0.94350   0.19877288E+00
   0.94450   0.20203161E+00
   0.94550   0.20639485E+00
   0.94650   0.21114932E+00
   0.94750   0.21595274E+00
   0.94850   0.22075026E+00
   0.94950   0.22567570E+00
   0.95050   0.23113923E+00
   0.95150   0.23770885E+00
   0.95250   0.24590005E+00
   0.95350   0.25602403E+00
   0.95450   0.26815629E+00
   0.95550   0.28223744E+00
   0.95650   0.29807231E+00
   0.95750   0.31536263E+00
   0.95850   0.33406860E+00
   0.95950   0.35431248E+00
   0.96050   0.37633184E+00
   0.96150   0.40042099E+00
   0.96250   0.42681184E+00
   0.96350   0.45550320E+00
   0.96450   0.48609635E+00
   0.96550   0.51776266E+00
   0.96650   0.54947305E+00
   0.96750   0.58044493E+00
   0.96850   0.61053354E+00
   0.96950   0.64032710E+00
   0.97050   0.67098379E+00
   0.97150   0.70403779E+00
   0.97250   0.74138147E+00
   0.97350   0.78553617E+00
   0.97450   0.84042281E+00
   0.97550   0.91223443E+00
   0.97650   0.10002598E+01
   0.97750   0.10984075E+01
   0.97850   0.12053773E+01
   0.97950   0.13203956E+01
   0.98050   0.14457331E+01
   0.98150   0.15864700E+01
   0.98250   0.17402247E+01
   0.98350   0.18837065E+01
   0.98450   0.20121236E+01
   0.98550   0.21579289E+01
   0.98650   0.23421772E+01
   0.98750   0.25862732E+01
   0.98850   0.28952405E+01
   0.98950   0.31600399E+01
   0.99050   0.33387003E+01
   0.99150   0.35308421E+01
   0.99250   0.37283235E+01
   0.99350   0.38705790E+01
   0.99450   0.40023208E+01
   0.99550   0.41120095E+01
   0.99650   0.41987972E+01
   0.99750   0.42649412E+01
   0.99850   0.43207321E+01
   0.99950   0.43779802E+01
