# Transmission, k-averaged
# Date: 2021-05-13
#   E [eV]           T [G0]
   0.00050   0.32791218E-02
   0.00150   0.51477453E-03
   0.00250   0.19510553E-02
   0.00350   0.69112051E-02
   0.00450   0.99821528E-02
   0.00550   0.16392447E-01
   0.00650   0.96914824E-02
   0.00750   0.58508683E-02
   0.00850   0.33888489E-01
   0.00950   0.53401855E-02
   0.01050   0.37987493E-01
   0.01150   0.59188907E-02
   0.01250   0.83760442E-02
   0.01350   0.28766386E-01
   0.01450   0.43407278E-02
   0.01550   0.80071231E-02
   0.01650   0.52649792E-01
   0.01750   0.45523290E-02
   0.01850   0.39299238E-02
   0.01950   0.20093108E-01
   0.02050   0.18193426E-01
   0.02150   0.36693444E-02
   0.02250   0.33226174E-02
   0.02350   0.10116313E-01
   0.02450   0.77089354E-01
   0.02550   0.55546351E-02
   0.02650   0.28920774E-02
   0.02750   0.36072226E-02
   0.02850   0.12787792E-01
   0.02950   0.78932136E-01
   0.03050   0.64110411E-02
   0.03150   0.30500882E-02
   0.03250   0.30256831E-02
   0.03350   0.59037637E-02
   0.03450   0.43509603E-01
   0.03550   0.26319979E-01
   0.03650   0.53694220E-02
   0.03750   0.32003708E-02
   0.03850   0.33754942E-02
   0.03950   0.62576006E-02
   0.04050   0.31762425E-01
   0.04150   0.56475140E-01
   0.04250   0.92639644E-02
   0.04350   0.51780599E-02
   0.04450   0.56575257E-02
   0.04550   0.10598966E-01
   0.04650   0.25140110E-01
   0.04750   0.47032174E-01
   0.04850   0.31727068E-01
   0.04950   0.17169073E-01
   0.05050   0.11694464E-01
   0.05150   0.99746073E-02
   0.05250   0.10251398E-01
   0.05350   0.12252913E-01
   0.05450   0.15986351E-01
   0.05550   0.19658798E-01
   0.05650   0.19026449E-01
   0.05750   0.14944183E-01
   0.05850   0.11418684E-01
   0.05950   0.94405226E-02
   0.06050   0.86899213E-02
   0.06150   0.88785440E-02
   0.06250   0.98737488E-02
   0.06350   0.11466962E-01
   0.06450   0.12941432E-01
   0.06550   0.13127142E-01
   0.06650   0.11793098E-01
   0.06750   0.99887848E-02
   0.06850   0.85698841E-02
   0.06950   0.77587655E-02
   0.07050   0.75190393E-02
   0.07150   0.77844942E-02
   0.07250   0.84833009E-02
   0.07350   0.94455108E-02
   0.07450   0.10275443E-01
   0.07550   0.10455086E-01
   0.07650   0.98320385E-02
   0.07750   0.88005587E-02
   0.07850   0.78385687E-02
   0.07950   0.71880422E-02
   0.08050   0.69086906E-02
   0.08150   0.69952933E-02
   0.08250   0.74247234E-02
   0.08350   0.81343120E-02
   0.08450   0.89498637E-02
   0.08550   0.95397560E-02
   0.08650   0.95708771E-02
   0.08750   0.90251779E-02
   0.08850   0.82204621E-02
   0.08950   0.75008390E-02
   0.09050   0.70564598E-02
   0.09150   0.69363602E-02
   0.09250   0.70089274E-02
   0.09350   0.71375244E-02
   0.09450   0.72670956E-02
   0.09550   0.72383857E-02
   0.09650   0.69350982E-02
   0.09750   0.63866801E-02
   0.09850   0.57356609E-02
   0.09950   0.51252367E-02
   0.10050   0.46351957E-02
   0.10150   0.42875032E-02
   0.10250   0.40727933E-02
   0.10350   0.39682360E-02
   0.10450   0.39436594E-02
   0.10550   0.39615566E-02
   0.10650   0.39779493E-02
   0.10750   0.39502867E-02
   0.10850   0.38525641E-02
   0.10950   0.36872784E-02
   0.11050   0.34821643E-02
   0.11150   0.32739686E-02
   0.11250   0.30930827E-02
   0.11350   0.29574237E-02
   0.11450   0.28735541E-02
   0.11550   0.28398577E-02
   0.11650   0.28487733E-02
   0.11750   0.28876956E-02
   0.11850   0.29396801E-02
   0.11950   0.29856369E-02
   0.12050   0.30089230E-02
   0.12150   0.30009281E-02
   0.12250   0.29641839E-02
   0.12350   0.29106040E-02
   0.12450   0.28562124E-02
   0.12550   0.28158873E-02
   0.12650   0.28003717E-02
   0.12750   0.28154638E-02
   0.12850   0.28622127E-02
   0.12950   0.29372086E-02
   0.13050   0.30327791E-02
   0.13150   0.31375433E-02
   0.13250   0.32380389E-02
   0.13350   0.33217221E-02
   0.13450   0.33805738E-02
   0.13550   0.34135778E-02
   0.13650   0.34266531E-02
   0.13750   0.34301803E-02
   0.13850   0.34356194E-02
   0.13950   0.34527171E-02
   0.14050   0.34878908E-02
   0.14150   0.35435704E-02
   0.14250   0.36180557E-02
   0.14350   0.37056685E-02
   0.14450   0.37972971E-02
   0.14550   0.38816268E-02
   0.14650   0.39472072E-02
   0.14750   0.39850338E-02
   0.14850   0.39907652E-02
   0.14950   0.39655813E-02
   0.15050   0.39152890E-02
   0.15150   0.38481515E-02
   0.15250   0.37724376E-02
   0.15350   0.36944912E-02
   0.15450   0.36176424E-02
   0.15550   0.35418540E-02
   0.15650   0.34639006E-02
   0.15750   0.33779694E-02
   0.15850   0.32767209E-02
   0.15950   0.31529090E-02
   0.16050   0.30015206E-02
   0.16150   0.28220294E-02
   0.16250   0.26199881E-02
   0.16350   0.24071315E-02
   0.16450   0.21997143E-02
   0.16550   0.20156961E-02
   0.16650   0.18719098E-02
   0.16750   0.17821019E-02
   0.16850   0.17559496E-02
   0.16950   0.17984799E-02
   0.17050   0.19091751E-02
   0.17150   0.20804410E-02
   0.17250   0.22956505E-02
   0.17350   0.25263706E-02
   0.17450   0.27226966E-02
   0.17550   0.27818922E-02
   0.17650   0.26780027E-02
   0.17750   0.25823056E-02
   0.17850   0.25223778E-02
   0.17950   0.24832729E-02
   0.18050   0.24550913E-02
   0.18150   0.24321189E-02
   0.18250   0.24107909E-02
   0.18350   0.23886852E-02
   0.18450   0.23640776E-02
   0.18550   0.23357621E-02
   0.18650   0.23029866E-02
   0.18750   0.22654221E-02
   0.18850   0.22231243E-02
   0.18950   0.21764676E-02
   0.19050   0.21260532E-02
   0.19150   0.20725923E-02
   0.19250   0.20167872E-02
   0.19350   0.19592189E-02
   0.19450   0.19002561E-02
   0.19550   0.18399920E-02
   0.19650   0.17782125E-02
   0.19750   0.17144007E-02
   0.19850   0.16477845E-02
   0.19950   0.15774415E-02
   0.20050   0.15024905E-02
   0.20150   0.14224126E-02
   0.20250   0.13375779E-02
   0.20350   0.12500833E-02
   0.20450   0.11650370E-02
   0.20550   0.10923984E-02
   0.20650   0.10491991E-02
   0.20750   0.10609761E-02
   0.20850   0.11585924E-02
   0.20950   0.13619936E-02
   0.21050   0.16398664E-02
   0.21150   0.18387984E-02
   0.21250   0.16875960E-02
   0.21350   0.20097755E-02
   0.21450   0.28501614E-02
   0.21550   0.32759244E-02
   0.21650   0.34678970E-02
   0.21750   0.35464163E-02
   0.21850   0.35731695E-02
   0.21950   0.35929091E-02
   0.22050   0.36167458E-02
   0.22150   0.36468336E-02
   0.22250   0.36842332E-02
   0.22350   0.37297830E-02
   0.22450   0.37843327E-02
   0.22550   0.38488917E-02
   0.22650   0.39247619E-02
   0.22750   0.40136776E-02
   0.22850   0.41179904E-02
   0.22950   0.42409291E-02
   0.23050   0.43869861E-02
   0.23150   0.45623975E-02
   0.23250   0.47750184E-02
   0.23350   0.50268783E-02
   0.23450   0.52450337E-02
   0.23550   0.52006082E-02
   0.23650   0.49991054E-02
   0.23750   0.47875936E-02
   0.23850   0.45924704E-02
   0.23950   0.44154688E-02
   0.24050   0.42545884E-02
   0.24150   0.41075610E-02
   0.24250   0.39724414E-02
   0.24350   0.38476458E-02
   0.24450   0.37318915E-02
   0.24550   0.36241256E-02
   0.24650   0.35234701E-02
   0.24750   0.34291793E-02
   0.24850   0.33406112E-02
   0.24950   0.32572073E-02
   0.25050   0.31784778E-02
   0.25150   0.31039924E-02
   0.25250   0.30333744E-02
   0.25350   0.29662955E-02
   0.25450   0.29024696E-02
   0.25550   0.28416512E-02
   0.25650   0.27836296E-02
   0.25750   0.27282243E-02
   0.25850   0.26752809E-02
   0.25950   0.26246656E-02
   0.26050   0.25762618E-02
   0.26150   0.25299641E-02
   0.26250   0.24856764E-02
   0.26350   0.24433082E-02
   0.26450   0.24027731E-02
   0.26550   0.23639866E-02
   0.26650   0.23268659E-02
   0.26750   0.22913308E-02
   0.26850   0.22573040E-02
   0.26950   0.22247110E-02
   0.27050   0.21934826E-02
   0.27150   0.21635550E-02
   0.27250   0.21348710E-02
   0.27350   0.21073800E-02
   0.27450   0.20810389E-02
   0.27550   0.20558115E-02
   0.27650   0.20316672E-02
   0.27750   0.20085811E-02
   0.27850   0.19865313E-02
   0.27950   0.19654995E-02
   0.28050   0.19454680E-02
   0.28150   0.19264185E-02
   0.28250   0.19083319E-02
   0.28350   0.18911861E-02
   0.28450   0.18749555E-02
   0.28550   0.18596097E-02
   0.28650   0.18451124E-02
   0.28750   0.18314184E-02
   0.28850   0.18184708E-02
   0.28950   0.18061935E-02
   0.29050   0.17944797E-02
   0.29150   0.17831690E-02
   0.29250   0.17720052E-02
   0.29350   0.17605486E-02
   0.29450   0.17479834E-02
   0.29550   0.17326461E-02
   0.29650   0.17106758E-02
   0.29750   0.16713577E-02
   0.29850   0.15803913E-02
   0.29950   0.13977918E-02
   0.30050   0.12184202E-02
   0.30150   0.10833772E-02
   0.30250   0.97961468E-03
   0.30350   0.89664996E-03
   0.30450   0.82826160E-03
   0.30550   0.77060895E-03
   0.30650   0.72117720E-03
   0.30750   0.67823357E-03
   0.30850   0.64053474E-03
   0.30950   0.60715835E-03
   0.31050   0.57740195E-03
   0.31150   0.55071822E-03
   0.31250   0.52667299E-03
   0.31350   0.50491601E-03
   0.31450   0.48516100E-03
   0.31550   0.46717064E-03
   0.31650   0.45074581E-03
   0.31750   0.43571685E-03
   0.31850   0.42193651E-03
   0.31950   0.40927323E-03
   0.32050   0.39760396E-03
   0.32150   0.38680469E-03
   0.32250   0.37673581E-03
   0.32350   0.36721586E-03
   0.32450   0.35797048E-03
   0.32550   0.34852422E-03
   0.32650   0.33795676E-03
   0.32750   0.32431973E-03
   0.32850   0.30320827E-03
   0.32950   0.26469387E-03
   0.33050   0.19267784E-03
   0.33150   0.10244094E-03
   0.33250   0.75739772E-04
   0.33350   0.10942980E-03
   0.33450   0.14988038E-03
   0.33550   0.17858479E-03
   0.33650   0.19694623E-03
   0.33750   0.20865255E-03
   0.33850   0.21626911E-03
   0.33950   0.22134799E-03
   0.34050   0.22482240E-03
   0.34150   0.22726823E-03
   0.34250   0.22905285E-03
   0.34350   0.23041866E-03
   0.34450   0.23153071E-03
   0.34550   0.23250468E-03
   0.34650   0.23342404E-03
   0.34750   0.23435055E-03
   0.34850   0.23533110E-03
   0.34950   0.23640219E-03
   0.35050   0.23759285E-03
   0.35150   0.23892640E-03
   0.35250   0.24042171E-03
   0.35350   0.24209351E-03
   0.35450   0.24395215E-03
   0.35550   0.24600225E-03
   0.35650   0.24823967E-03
   0.35750   0.25064469E-03
   0.35850   0.25316697E-03
   0.35950   0.25568769E-03
   0.36050   0.25790872E-03
   0.36150   0.25896067E-03
   0.36250   0.25621147E-03
   0.36350   0.24867794E-03
   0.36450   0.24213892E-03
   0.36550   0.23780402E-03
   0.36650   0.23517218E-03
   0.36750   0.23389011E-03
   0.36850   0.23376477E-03
   0.36950   0.23469793E-03
   0.37050   0.23665020E-03
   0.37150   0.23962330E-03
   0.37250   0.24365206E-03
   0.37350   0.24880210E-03
   0.37450   0.25517211E-03
   0.37550   0.26290031E-03
   0.37650   0.27217754E-03
   0.37750   0.28326953E-03
   0.37850   0.29655310E-03
   0.37950   0.31255203E-03
   0.38050   0.33174551E-03
   0.38150   0.35164351E-03
   0.38250   0.35281293E-03
   0.38350   0.32751472E-03
   0.38450   0.29381635E-03
   0.38550   0.26197155E-03
   0.38650   0.25112744E-03
   0.38750   0.30289078E-03
   0.38850   0.42127300E-03
   0.38950   0.50774368E-03
   0.39050   0.53068640E-03
   0.39150   0.52367983E-03
   0.39250   0.50832052E-03
   0.39350   0.49220485E-03
   0.39450   0.47745852E-03
   0.39550   0.46445362E-03
   0.39650   0.45304938E-03
   0.39750   0.44298486E-03
   0.39850   0.43399859E-03
   0.39950   0.42586029E-03
   0.40050   0.41837414E-03
   0.40150   0.41137417E-03
   0.40250   0.40471734E-03
   0.40350   0.39827664E-03
   0.40450   0.39193415E-03
   0.40550   0.38557340E-03
   0.40650   0.37906980E-03
   0.40750   0.37227664E-03
   0.40850   0.36500135E-03
   0.40950   0.35696026E-03
   0.41050   0.34767983E-03
   0.41150   0.33624994E-03
   0.41250   0.32059065E-03
   0.41350   0.29506147E-03
   0.41450   0.25060683E-03
   0.41550   0.20517677E-03
   0.41650   0.17301292E-03
   0.41750   0.14981018E-03
   0.41850   0.13207998E-03
   0.41950   0.11793208E-03
   0.42050   0.10627940E-03
   0.42150   0.96446114E-04
   0.42250   0.87983979E-04
   0.42350   0.80579455E-04
   0.42450   0.74003037E-04
   0.42550   0.68079622E-04
   0.42650   0.62670064E-04
   0.42750   0.57659112E-04
   0.42850   0.52947173E-04
   0.42950   0.48444777E-04
   0.43050   0.44069508E-04
   0.43150   0.39746556E-04
   0.43250   0.35415771E-04
   0.43350   0.31051226E-04
   0.43450   0.26701980E-04
   0.43550   0.22557961E-04
   0.43650   0.19013389E-04
   0.43750   0.16633341E-04
   0.43850   0.15916228E-04
   0.43950   0.16932107E-04
   0.44050   0.19153815E-04
   0.44150   0.21732783E-04
   0.44250   0.23991384E-04
   0.44350   0.25640647E-04
   0.44450   0.26677419E-04
   0.44550   0.27216840E-04
   0.44650   0.27391399E-04
   0.44750   0.27312801E-04
   0.44850   0.27064911E-04
   0.44950   0.26707545E-04
   0.45050   0.26282371E-04
   0.45150   0.25818115E-04
   0.45250   0.25334497E-04
   0.45350   0.24845009E-04
   0.45450   0.24358857E-04
   0.45550   0.23882274E-04
   0.45650   0.23419432E-04
   0.45750   0.22973059E-04
   0.45850   0.22544871E-04
   0.45950   0.22135873E-04
   0.46050   0.21746562E-04
   0.46150   0.21377084E-04
   0.46250   0.21027330E-04
   0.46350   0.20697020E-04
   0.46450   0.20385736E-04
   0.46550   0.20092979E-04
   0.46650   0.19818181E-04
   0.46750   0.19560717E-04
   0.46850   0.19319927E-04
   0.46950   0.19095100E-04
   0.47050   0.18885488E-04
   0.47150   0.18690283E-04
   0.47250   0.18508617E-04
   0.47350   0.18339528E-04
   0.47450   0.18181943E-04
   0.47550   0.18034641E-04
   0.47650   0.17896202E-04
   0.47750   0.17764940E-04
   0.47850   0.17638828E-04
   0.47950   0.17515371E-04
   0.48050   0.17391449E-04
   0.48150   0.17263104E-04
   0.48250   0.17125225E-04
   0.48350   0.16971100E-04
   0.48450   0.16791781E-04
   0.48550   0.16575104E-04
   0.48650   0.16304250E-04
   0.48750   0.15955462E-04
   0.48850   0.15494477E-04
   0.48950   0.14870786E-04
   0.49050   0.14008490E-04
   0.49150   0.12792559E-04
   0.49250   0.11053347E-04
   0.49350   0.85783986E-05
   0.49450   0.53081071E-05
   0.49550   0.21944866E-05
   0.49650   0.15841373E-05
   0.49750   0.60939965E-05
   0.49850   0.15682024E-04
   0.49950   0.21295964E-04
   0.50050   0.24675486E-04
   0.50150   0.27186883E-04
   0.50250   0.29248618E-04
   0.50350   0.31057469E-04
   0.50450   0.32731819E-04
   0.50550   0.34352932E-04
   0.50650   0.35982546E-04
   0.50750   0.37672395E-04
   0.50850   0.39470404E-04
   0.50950   0.41425443E-04
   0.51050   0.43591783E-04
   0.51150   0.46034133E-04
   0.51250   0.48834321E-04
   0.51350   0.52101201E-04
   0.51450   0.55986682E-04
   0.51550   0.60713810E-04
   0.51650   0.66629822E-04
   0.51750   0.74316369E-04
   0.51850   0.84843428E-04
   0.51950   0.10039337E-03
   0.52050   0.12486735E-03
   0.52150   0.15389101E-03
   0.52250   0.17445652E-03
   0.52350   0.18899902E-03
   0.52450   0.20065131E-03
   0.52550   0.21079413E-03
   0.52650   0.22011845E-03
   0.52750   0.22903369E-03
   0.52850   0.23781226E-03
   0.52950   0.24662365E-03
   0.53050   0.25544257E-03
   0.53150   0.26351414E-03
   0.53250   0.26648864E-03
   0.53350   0.25012941E-03
   0.53450   0.22063521E-03
   0.53550   0.19561916E-03
   0.53650   0.17612643E-03
   0.53750   0.16067110E-03
   0.53850   0.14811405E-03
   0.53950   0.13767934E-03
   0.54050   0.12881335E-03
   0.54150   0.12108230E-03
   0.54250   0.11409527E-03
   0.54350   0.10742353E-03
   0.54450   0.10047080E-03
   0.54550   0.92176939E-04
   0.54650   0.80178776E-04
   0.54750   0.59423826E-04
   0.54850   0.43125442E-03
   0.54950   0.81466664E-04
   0.55050   0.11024858E-03
   0.55150   0.10665235E-03
   0.55250   0.10097830E-03
   0.55350   0.98467230E-04
   0.55450   0.99861507E-04
   0.55550   0.10219593E-03
   0.55650   0.10375373E-03
   0.55750   0.10461325E-03
   0.55850   0.10413785E-03
   0.55950   0.10151765E-03
   0.56050   0.96309304E-04
   0.56150   0.88760004E-04
   0.56250   0.81088670E-04
   0.56350   0.72632283E-04
   0.56450   0.56874145E-04
   0.56550   0.11892743E-03
   0.56650   0.11600332E-03
   0.56750   0.90600333E-04
   0.56850   0.87452303E-04
   0.56950   0.10378112E-03
   0.57050   0.19864702E-03
   0.57150   0.13634176E-02
   0.57250   0.79903752E-01
   0.57350   0.70185955E-02
   0.57450   0.90734212E-03
   0.57550   0.59549249E-03
   0.57650   0.14093810E-02
   0.57750   0.21848273E-01
   0.57850   0.70104911E-02
   0.57950   0.10983215E+00
   0.58050   0.50185202E-02
   0.58150   0.45651970E-02
   0.58250   0.12464199E-01
   0.58350   0.38580180E-02
   0.58450   0.26022014E-02
   0.58550   0.32617468E-02
   0.58650   0.40895548E-02
   0.58750   0.43153577E-02
   0.58850   0.39646062E-02
   0.58950   0.34909814E-02
   0.59050   0.31094342E-02
   0.59150   0.28082700E-02
   0.59250   0.26004098E-02
   0.59350   0.23645605E-02
   0.59450   0.21937012E-02
   0.59550   0.20036898E-02
   0.59650   0.17776125E-02
   0.59750   0.16062725E-02
   0.59850   0.14785395E-02
   0.59950   0.13613565E-02
   0.60050   0.12737586E-02
   0.60150   0.12304013E-02
   0.60250   0.12096370E-02
   0.60350   0.11853130E-02
   0.60450   0.11593848E-02
   0.60550   0.11492567E-02
   0.60650   0.11599779E-02
   0.60750   0.11792493E-02
   0.60850   0.11921247E-02
   0.60950   0.11966308E-02
   0.61050   0.12017620E-02
   0.61150   0.12140658E-02
   0.61250   0.12310776E-02
   0.61350   0.12463009E-02
   0.61450   0.12584906E-02
   0.61550   0.12742569E-02
   0.61650   0.13003243E-02
   0.61750   0.13267875E-02
   0.61850   0.12969064E-02
   0.61950   0.12035366E-02
   0.62050   0.11041965E-02
   0.62150   0.10147524E-02
   0.62250   0.93394937E-03
   0.62350   0.85352693E-03
   0.62450   0.74633153E-03
   0.62550   0.55439264E-03
   0.62650   0.59622311E-03
   0.62750   0.62386930E-03
   0.62850   0.62162662E-03
   0.62950   0.61889831E-03
   0.63050   0.62178209E-03
   0.63150   0.63048449E-03
   0.63250   0.64361002E-03
   0.63350   0.65959623E-03
   0.63450   0.67722256E-03
   0.63550   0.69558993E-03
   0.63650   0.71383145E-03
   0.63750   0.73084555E-03
   0.63850   0.74527593E-03
   0.63950   0.75578952E-03
   0.64050   0.76150469E-03
   0.64150   0.76229451E-03
   0.64250   0.75875776E-03
   0.64350   0.75187162E-03
   0.64450   0.74254238E-03
   0.64550   0.73129538E-03
   0.64650   0.71822846E-03
   0.64750   0.70320332E-03
   0.64850   0.68614498E-03
   0.64950   0.66728354E-03
   0.65050   0.64721494E-03
   0.65150   0.62676496E-03
   0.65250   0.60674443E-03
   0.65350   0.58772281E-03
   0.65450   0.56990737E-03
   0.65550   0.55314967E-03
   0.65650   0.53705293E-03
   0.65750   0.52113266E-03
   0.65850   0.50497771E-03
   0.65950   0.48836408E-03
   0.66050   0.47129139E-03
   0.66150   0.45393978E-03
   0.66250   0.43657669E-03
   0.66350   0.41945695E-03
   0.66450   0.40275190E-03
   0.66550   0.38652439E-03
   0.66650   0.37074505E-03
   0.66750   0.35533481E-03
   0.66850   0.34021409E-03
   0.66950   0.32534334E-03
   0.67050   0.31074387E-03
   0.67150   0.29649719E-03
   0.67250   0.28272718E-03
   0.67350   0.26957510E-03
   0.67450   0.25717652E-03
   0.67550   0.24564785E-03
   0.67650   0.23508410E-03
   0.67750   0.22556688E-03
   0.67850   0.21717894E-03
   0.67950   0.21002171E-03
   0.68050   0.20423351E-03
   0.68150   0.20000825E-03
   0.68250   0.19761738E-03
   0.68350   0.19744074E-03
   0.68450   0.20000851E-03
   0.68550   0.20598742E-03
   0.68650   0.21527102E-03
   0.68750   0.22093595E-03
   0.68850   0.21724148E-03
   0.68950   0.21218824E-03
   0.69050   0.20856294E-03
   0.69150   0.20655571E-03
   0.69250   0.20596338E-03
   0.69350   0.20655178E-03
   0.69450   0.20811107E-03
   0.69550   0.21045892E-03
   0.69650   0.21343515E-03
   0.69750   0.21689662E-03
   0.69850   0.22071404E-03
   0.69950   0.22476962E-03
   0.70050   0.22895283E-03
   0.70150   0.23314422E-03
   0.70250   0.23714745E-03
   0.70350   0.24037567E-03
   0.70450   0.24015152E-03
   0.70550   0.22573695E-03
   0.70650   0.19588858E-03
   0.70750   0.16738850E-03
   0.70850   0.14332829E-03
   0.70950   0.12294413E-03
   0.71050   0.10547639E-03
   0.71150   0.90406968E-04
   0.71250   0.77385259E-04
   0.71350   0.66162596E-04
   0.71450   0.56551184E-04
   0.71550   0.48399441E-04
   0.71650   0.41577059E-04
   0.71750   0.35965964E-04
   0.71850   0.31455005E-04
   0.71950   0.27937163E-04
   0.72050   0.25308524E-04
   0.72150   0.23468434E-04
   0.72250   0.22320475E-04
   0.72350   0.21773894E-04
   0.72450   0.21745333E-04
   0.72550   0.22160806E-04
   0.72650   0.22958151E-04
   0.72750   0.24090634E-04
   0.72850   0.25533602E-04
   0.72950   0.27299964E-04
   0.73050   0.29485638E-04
   0.73150   0.32433432E-04
   0.73250   0.37061403E-04
   0.73350   0.43138607E-04
   0.73450   0.49362636E-04
   0.73550   0.55683497E-04
   0.73650   0.62260922E-04
   0.73750   0.69223330E-04
   0.73850   0.76674645E-04
   0.73950   0.84706160E-04
   0.74050   0.93403236E-04
   0.74150   0.10284950E-03
   0.74250   0.11313001E-03
   0.74350   0.12433447E-03
   0.74450   0.13656094E-03
   0.74550   0.14992026E-03
   0.74650   0.16454159E-03
   0.74750   0.18057926E-03
   0.74850   0.19822105E-03
   0.74950   0.21769843E-03
   0.75050   0.23929872E-03
   0.75150   0.26337992E-03
   0.75250   0.29038833E-03
   0.75350   0.32087992E-03
   0.75450   0.35554598E-03
   0.75550   0.39524405E-03
   0.75650   0.44103540E-03
   0.75750   0.49423100E-03
   0.75850   0.55644743E-03
   0.75950   0.62967534E-03
   0.76050   0.71636320E-03
   0.76150   0.81951777E-03
   0.76250   0.94282150E-03
   0.76350   0.10907589E-02
   0.76450   0.12687285E-02
   0.76550   0.14830747E-02
   0.76650   0.17408761E-02
   0.76750   0.20491031E-02
   0.76850   0.24122216E-02
   0.76950   0.28260765E-02
   0.77050   0.32629427E-02
   0.77150   0.36346479E-02
   0.77250   0.36722147E-02
   0.77350   0.36117996E-02
   0.77450   0.89207171E-02
   0.77550   0.43690912E-02
   0.77650   0.27517150E-02
   0.77750   0.20179846E-02
   0.77850   0.18837097E-02
   0.77950   0.20917931E-02
   0.78050   0.20182913E-02
   0.78150   0.14095634E-02
   0.78250   0.18930737E-02
   0.78350   0.27512407E-02
   0.78450   0.33737975E-02
   0.78550   0.40210988E-02
   0.78650   0.51825959E-02
   0.78750   0.99032661E-02
   0.78850   0.16089370E-01
   0.78950   0.74494095E-02
   0.79050   0.81658112E-02
   0.79150   0.14618922E-01
   0.79250   0.64752080E-01
   0.79350   0.18682772E+00
   0.79450   0.11314329E+00
   0.79550   0.20361160E+00
   0.79650   0.97354956E-01
   0.79750   0.49345829E-01
   0.79850   0.34785651E-01
   0.79950   0.33045128E-01
   0.80050   0.30113757E-01
   0.80150   0.25206812E-01
   0.80250   0.20311859E-01
   0.80350   0.16866269E-01
   0.80450   0.14563023E-01
   0.80550   0.12578537E-01
   0.80650   0.11089647E-01
   0.80750   0.10290599E-01
   0.80850   0.10157395E-01
   0.80950   0.10446519E-01
   0.81050   0.10803427E-01
   0.81150   0.10995517E-01
   0.81250   0.10901429E-01
   0.81350   0.10400125E-01
   0.81450   0.95612071E-02
   0.81550   0.87567726E-02
   0.81650   0.83715171E-02
   0.81750   0.84962538E-02
   0.81850   0.89829145E-02
   0.81950   0.96397484E-02
   0.82050   0.10315403E-01
   0.82150   0.10902356E-01
   0.82250   0.11329588E-01
   0.82350   0.11553569E-01
   0.82450   0.11553061E-01
   0.82550   0.11349636E-01
   0.82650   0.10992722E-01
   0.82750   0.10521694E-01
   0.82850   0.10075158E-01
   0.82950   0.97840372E-02
   0.83050   0.97218109E-02
   0.83150   0.99003455E-02
   0.83250   0.10271276E-01
   0.83350   0.10746126E-01
   0.83450   0.11245040E-01
   0.83550   0.11736222E-01
   0.83650   0.12216545E-01
   0.83750   0.12656290E-01
   0.83850   0.12987899E-01
   0.83950   0.13177759E-01
   0.84050   0.13302439E-01
   0.84150   0.13519026E-01
   0.84250   0.13926111E-01
   0.84350   0.14302124E-01
   0.84450   0.14103075E-01
   0.84550   0.13206243E-01
   0.84650   0.12090907E-01
   0.84750   0.11203390E-01
   0.84850   0.10649227E-01
   0.84950   0.10506828E-01
   0.85050   0.10777993E-01
   0.85150   0.11424151E-01
   0.85250   0.12412189E-01
   0.85350   0.13651373E-01
   0.85450   0.14901363E-01
   0.85550   0.15807079E-01
   0.85650   0.16160591E-01
   0.85750   0.16059523E-01
   0.85850   0.15719013E-01
   0.85950   0.15268852E-01
   0.86050   0.14745897E-01
   0.86150   0.14176776E-01
   0.86250   0.13631064E-01
   0.86350   0.13206447E-01
   0.86450   0.12986400E-01
   0.86550   0.13022020E-01
   0.86650   0.13339296E-01
   0.86750   0.13946161E-01
   0.86850   0.14822630E-01
   0.86950   0.15894627E-01
   0.87050   0.17013961E-01
   0.87150   0.17986119E-01
   0.87250   0.18659154E-01
   0.87350   0.19005274E-01
   0.87450   0.19113269E-01
   0.87550   0.19111603E-01
   0.87650   0.19100998E-01
   0.87750   0.19130366E-01
   0.87850   0.19202506E-01
   0.87950   0.19291241E-01
   0.88050   0.19362349E-01
   0.88150   0.19394241E-01
   0.88250   0.19391345E-01
   0.88350   0.19383753E-01
   0.88450   0.19415352E-01
   0.88550   0.19531079E-01
   0.88650   0.19772442E-01
   0.88750   0.20181708E-01
   0.88850   0.20808280E-01
   0.88950   0.21710781E-01
   0.89050   0.22952618E-01
   0.89150   0.24591438E-01
   0.89250   0.26661973E-01
   0.89350   0.29150059E-01
   0.89450   0.31959675E-01
   0.89550   0.34888044E-01
   0.89650   0.37639607E-01
   0.89750   0.39902125E-01
   0.89850   0.41453879E-01
   0.89950   0.42210612E-01
   0.90050   0.42121358E-01
   0.90150   0.40954478E-01
   0.90250   0.38764697E-01
   0.90350   0.36513668E-01
   0.90450   0.34643441E-01
   0.90550   0.33127762E-01
   0.90650   0.31976845E-01
   0.90750   0.31236822E-01
   0.90850   0.30966809E-01
   0.90950   0.31231720E-01
   0.91050   0.32104433E-01
   0.91150   0.33674892E-01
   0.91250   0.36076710E-01
   0.91350   0.39586760E-01
   0.91450   0.45078013E-01
   0.91550   0.56833427E-01
   0.91650   0.10682619E+00
   0.91750   0.12160487E+00
   0.91850   0.93819208E-01
   0.91950   0.13150166E+00
   0.92050   0.24495444E+00
   0.92150   0.19325535E+00
   0.92250   0.26711297E+00
   0.92350   0.29722965E+00
   0.92450   0.32389319E+00
   0.92550   0.33687574E+00
   0.92650   0.42304277E+00
   0.92750   0.56815499E+00
   0.92850   0.53496987E+00
   0.92950   0.50327563E+00
   0.93050   0.49794614E+00
   0.93150   0.48948967E+00
   0.93250   0.54091388E+00
   0.93350   0.69804674E+00
   0.93450   0.80685586E+00
   0.93550   0.74723363E+00
   0.93650   0.62423480E+00
   0.93750   0.54731405E+00
   0.93850   0.48936388E+00
   0.93950   0.43952763E+00
   0.94050   0.39758357E+00
   0.94150   0.34627604E+00
   0.94250   0.31746095E+00
   0.94350   0.29546034E+00
   0.94450   0.27469826E+00
   0.94550   0.25864667E+00
   0.94650   0.24784823E+00
   0.94750   0.24011347E+00
   0.94850   0.23511447E+00
   0.94950   0.23205709E+00
   0.95050   0.22793192E+00
   0.95150   0.22018480E+00
   0.95250   0.20913573E+00
   0.95350   0.19740149E+00
   0.95450   0.18656233E+00
   0.95550   0.17563961E+00
   0.95650   0.16585924E+00
   0.95750   0.16142625E+00
   0.95850   0.16398750E+00
   0.95950   0.17111002E+00
   0.96050   0.17821272E+00
   0.96150   0.18254019E+00
   0.96250   0.18416248E+00
   0.96350   0.18488798E+00
   0.96450   0.18824103E+00
   0.96550   0.19952229E+00
   0.96650   0.22251628E+00
   0.96750   0.24900214E+00
   0.96850   0.25568405E+00
   0.96950   0.23194133E+00
   0.97050   0.19929616E+00
   0.97150   0.17722262E+00
   0.97250   0.16423044E+00
   0.97350   0.15509754E+00
   0.97450   0.14878529E+00
   0.97550   0.14627364E+00
   0.97650   0.14846157E+00
   0.97750   0.15590972E+00
   0.97850   0.16929039E+00
   0.97950   0.18761937E+00
   0.98050   0.20427172E+00
   0.98150   0.21541347E+00
   0.98250   0.22814879E+00
   0.98350   0.24691045E+00
   0.98450   0.26363593E+00
   0.98550   0.26334298E+00
   0.98650   0.24155770E+00
   0.98750   0.21329169E+00
   0.98850   0.19480827E+00
   0.98950   0.18860422E+00
   0.99050   0.18920492E+00
   0.99150   0.19296843E+00
   0.99250   0.19851801E+00
   0.99350   0.20532317E+00
   0.99450   0.21317868E+00
   0.99550   0.22186226E+00
   0.99650   0.23231715E+00
   0.99750   0.24619842E+00
   0.99850   0.26478109E+00
   0.99950   0.28689107E+00
