# Transmission, k-averaged
# Date: 2021-05-13
#   E [eV]           T [G0]
   0.00050   0.22208601E+00
   0.00150   0.39326131E+00
   0.00250   0.22755919E+00
   0.00350   0.18350263E+00
   0.00450   0.12909965E+00
   0.00550   0.13922521E+00
   0.00650   0.59972249E-01
   0.00750   0.27415155E-01
   0.00850   0.12328050E+00
   0.00950   0.15326895E-01
   0.01050   0.87094575E-01
   0.01150   0.11012063E-01
   0.01250   0.12804886E-01
   0.01350   0.36506083E-01
   0.01450   0.46314285E-02
   0.01550   0.72860420E-02
   0.01650   0.41372433E-01
   0.01750   0.31224312E-02
   0.01850   0.23787925E-02
   0.01950   0.10865979E-01
   0.02050   0.89025386E-02
   0.02150   0.16440549E-02
   0.02250   0.13776168E-02
   0.02350   0.39195758E-02
   0.02450   0.28180718E-01
   0.02550   0.19341457E-02
   0.02650   0.96786080E-03
   0.02750   0.11692803E-02
   0.02850   0.40398738E-02
   0.02950   0.24414783E-01
   0.03050   0.19480549E-02
   0.03150   0.91265282E-03
   0.03250   0.89305703E-03
   0.03350   0.17206453E-02
   0.03450   0.12523804E-01
   0.03550   0.74756495E-02
   0.03650   0.15016607E-02
   0.03750   0.87811606E-03
   0.03850   0.90380985E-03
   0.03950   0.16228821E-02
   0.04050   0.78952452E-02
   0.04150   0.13247831E-01
   0.04250   0.20000970E-02
   0.04350   0.98285254E-03
   0.04450   0.86101919E-03
   0.04550   0.11810106E-02
   0.04650   0.22366985E-02
   0.04750   0.36597128E-02
   0.04850   0.22595734E-02
   0.04950   0.11467632E-02
   0.05050   0.74328895E-03
   0.05150   0.60898176E-03
   0.05250   0.60508226E-03
   0.05350   0.70241425E-03
   0.05450   0.89313224E-03
   0.05550   0.10732093E-02
   0.05650   0.10170875E-02
   0.05750   0.78358769E-03
   0.05850   0.58811175E-03
   0.05950   0.47816834E-03
   0.06050   0.43328246E-03
   0.06150   0.43614037E-03
   0.06250   0.47818245E-03
   0.06350   0.54781203E-03
   0.06450   0.61014941E-03
   0.06550   0.61102048E-03
   0.06650   0.54209540E-03
   0.06750   0.45355482E-03
   0.06850   0.38446076E-03
   0.06950   0.34396161E-03
   0.07050   0.32945437E-03
   0.07150   0.33717346E-03
   0.07250   0.36329112E-03
   0.07350   0.40000340E-03
   0.07450   0.43040176E-03
   0.07550   0.43324076E-03
   0.07650   0.40315522E-03
   0.07750   0.35716596E-03
   0.07850   0.31494617E-03
   0.07950   0.28599790E-03
   0.08050   0.27228089E-03
   0.08150   0.27315988E-03
   0.08250   0.28734622E-03
   0.08350   0.31209743E-03
   0.08450   0.34053894E-03
   0.08550   0.36009288E-03
   0.08650   0.35852005E-03
   0.08750   0.33564001E-03
   0.08850   0.30363860E-03
   0.08950   0.27529828E-03
   0.09050   0.25741651E-03
   0.09150   0.25129228E-03
   0.09250   0.25101879E-03
   0.09350   0.25189921E-03
   0.09450   0.25295283E-03
   0.09550   0.24881944E-03
   0.09650   0.23568620E-03
   0.09750   0.21477662E-03
   0.09850   0.19101026E-03
   0.09950   0.16913620E-03
   0.10050   0.15166902E-03
   0.10150   0.13917868E-03
   0.10250   0.13122463E-03
   0.10350   0.12696278E-03
   0.10450   0.12535001E-03
   0.10550   0.12514627E-03
   0.10650   0.12494299E-03
   0.10750   0.12340974E-03
   0.10850   0.11975707E-03
   0.10950   0.11408950E-03
   0.11050   0.10728317E-03
   0.11150   0.10047317E-03
   0.11250   0.94581890E-04
   0.11350   0.90139598E-04
   0.11450   0.87327098E-04
   0.11550   0.86078187E-04
   0.11650   0.86150540E-04
   0.11750   0.87154360E-04
   0.11850   0.88574125E-04
   0.11950   0.89834197E-04
   0.12050   0.90435686E-04
   0.12150   0.90122216E-04
   0.12250   0.88971261E-04
   0.12350   0.87340202E-04
   0.12450   0.85708409E-04
   0.12550   0.84520630E-04
   0.12650   0.84098399E-04
   0.12750   0.84616273E-04
   0.12850   0.86107771E-04
   0.12950   0.88473593E-04
   0.13050   0.91486567E-04
   0.13150   0.94807023E-04
   0.13250   0.98030425E-04
   0.13350   0.10077698E-03
   0.13450   0.10280070E-03
   0.13550   0.10406596E-03
   0.13650   0.10474787E-03
   0.13750   0.10515946E-03
   0.13850   0.10565016E-03
   0.13950   0.10652081E-03
   0.14050   0.10797334E-03
   0.14150   0.11008904E-03
   0.14250   0.11282209E-03
   0.14350   0.11600188E-03
   0.14450   0.11934763E-03
   0.14550   0.12250459E-03
   0.14650   0.12510766E-03
   0.14750   0.12686303E-03
   0.14850   0.12762025E-03
   0.14950   0.12740299E-03
   0.15050   0.12638416E-03
   0.15150   0.12481927E-03
   0.15250   0.12296873E-03
   0.15350   0.12103499E-03
   0.15450   0.11912535E-03
   0.15550   0.11723795E-03
   0.15650   0.11526485E-03
   0.15750   0.11300935E-03
   0.15850   0.11021912E-03
   0.15950   0.10663946E-03
   0.16050   0.10208584E-03
   0.16150   0.96522992E-04
   0.16250   0.90123867E-04
   0.16350   0.83279221E-04
   0.16450   0.76546181E-04
   0.16550   0.70554655E-04
   0.16650   0.65909888E-04
   0.16750   0.63122374E-04
   0.16850   0.62569932E-04
   0.16950   0.64472893E-04
   0.17050   0.68856803E-04
   0.17150   0.75490643E-04
   0.17250   0.83806750E-04
   0.17350   0.92786671E-04
   0.17450   0.10058378E-03
   0.17550   0.10331833E-03
   0.17650   0.99939229E-04
   0.17750   0.96862852E-04
   0.17850   0.95136806E-04
   0.17950   0.94203831E-04
   0.18050   0.93692724E-04
   0.18150   0.93387855E-04
   0.18250   0.93153241E-04
   0.18350   0.92894996E-04
   0.18450   0.92544789E-04
   0.18550   0.92053400E-04
   0.18650   0.91388618E-04
   0.18750   0.90534500E-04
   0.18850   0.89490386E-04
   0.18950   0.88268760E-04
   0.19050   0.86891945E-04
   0.19150   0.85387765E-04
   0.19250   0.83784907E-04
   0.19350   0.82108359E-04
   0.19450   0.80375619E-04
   0.19550   0.78593817E-04
   0.19650   0.76758166E-04
   0.19750   0.74851792E-04
   0.19850   0.72847528E-04
   0.19950   0.70712304E-04
   0.20050   0.68415851E-04
   0.20150   0.65946391E-04
   0.20250   0.63338230E-04
   0.20350   0.60720060E-04
   0.20450   0.58399375E-04
   0.20550   0.57010457E-04
   0.20650   0.57774942E-04
   0.20750   0.62966552E-04
   0.20850   0.76794058E-04
   0.20950   0.10746686E-03
   0.21050   0.17407887E-03
   0.21150   0.33451660E-03
   0.21250   0.71563042E-03
   0.21350   0.75157348E-03
   0.21450   0.41122979E-03
   0.21550   0.27345764E-03
   0.21650   0.22351550E-03
   0.21750   0.20663996E-03
   0.21850   0.20354688E-03
   0.21950   0.20169289E-03
   0.22050   0.19950564E-03
   0.22150   0.19751303E-03
   0.22250   0.19603266E-03
   0.22350   0.19521295E-03
   0.22450   0.19512874E-03
   0.22550   0.19583090E-03
   0.22650   0.19737189E-03
   0.22750   0.19982143E-03
   0.22850   0.20327949E-03
   0.22950   0.20789087E-03
   0.23050   0.21386518E-03
   0.23150   0.22150109E-03
   0.23250   0.23118196E-03
   0.23350   0.24301668E-03
   0.23450   0.25348231E-03
   0.23550   0.25146850E-03
   0.23650   0.24207385E-03
   0.23750   0.23240420E-03
   0.23850   0.22370736E-03
   0.23950   0.21604000E-03
   0.24050   0.20928272E-03
   0.24150   0.20330712E-03
   0.24250   0.19800353E-03
   0.24350   0.19328238E-03
   0.24450   0.18907062E-03
   0.24550   0.18530802E-03
   0.24650   0.18194414E-03
   0.24750   0.17893604E-03
   0.24850   0.17624673E-03
   0.24950   0.17384392E-03
   0.25050   0.17169926E-03
   0.25150   0.16978780E-03
   0.25250   0.16808759E-03
   0.25350   0.16657935E-03
   0.25450   0.16524634E-03
   0.25550   0.16407398E-03
   0.25650   0.16304983E-03
   0.25750   0.16216320E-03
   0.25850   0.16140500E-03
   0.25950   0.16076746E-03
   0.26050   0.16024389E-03
   0.26150   0.15982843E-03
   0.26250   0.15951578E-03
   0.26350   0.15930115E-03
   0.26450   0.15917994E-03
   0.26550   0.15914773E-03
   0.26650   0.15920025E-03
   0.26750   0.15933331E-03
   0.26850   0.15954282E-03
   0.26950   0.15982486E-03
   0.27050   0.16017580E-03
   0.27150   0.16059229E-03
   0.27250   0.16107137E-03
   0.27350   0.16161054E-03
   0.27450   0.16220780E-03
   0.27550   0.16286156E-03
   0.27650   0.16357074E-03
   0.27750   0.16433466E-03
   0.27850   0.16515293E-03
   0.27950   0.16602536E-03
   0.28050   0.16695190E-03
   0.28150   0.16793239E-03
   0.28250   0.16896661E-03
   0.28350   0.17005399E-03
   0.28450   0.17119358E-03
   0.28550   0.17238388E-03
   0.28650   0.17362267E-03
   0.28750   0.17490670E-03
   0.28850   0.17623132E-03
   0.28950   0.17758961E-03
   0.29050   0.17897114E-03
   0.29150   0.18035939E-03
   0.29250   0.18172698E-03
   0.29350   0.18302593E-03
   0.29450   0.18416604E-03
   0.29550   0.18496180E-03
   0.29650   0.18498040E-03
   0.29750   0.18301618E-03
   0.29850   0.17518668E-03
   0.29950   0.15679022E-03
   0.30050   0.13825315E-03
   0.30150   0.12431933E-03
   0.30250   0.11364829E-03
   0.30350   0.10513184E-03
   0.30450   0.98112891E-04
   0.30550   0.92187554E-04
   0.30650   0.87092558E-04
   0.30750   0.82647239E-04
   0.30850   0.78722376E-04
   0.30950   0.75222313E-04
   0.31050   0.72074239E-04
   0.31150   0.69221409E-04
   0.31250   0.66618726E-04
   0.31350   0.64229753E-04
   0.31450   0.62024701E-04
   0.31550   0.59979011E-04
   0.31650   0.58072506E-04
   0.31750   0.56288918E-04
   0.31850   0.54615870E-04
   0.31950   0.53045518E-04
   0.32050   0.51576113E-04
   0.32150   0.50215262E-04
   0.32250   0.48986418E-04
   0.32350   0.47941914E-04
   0.32450   0.47190028E-04
   0.32550   0.46954010E-04
   0.32650   0.47709036E-04
   0.32750   0.50521827E-04
   0.32850   0.57942929E-04
   0.32950   0.76303622E-04
   0.33050   0.11913753E-03
   0.33150   0.18877108E-03
   0.33250   0.21295054E-03
   0.33350   0.17566969E-03
   0.33450   0.13826863E-03
   0.33550   0.11397710E-03
   0.33650   0.98676675E-04
   0.33750   0.88625638E-04
   0.33850   0.81690312E-04
   0.33950   0.76695971E-04
   0.34050   0.72973424E-04
   0.34150   0.70123373E-04
   0.34250   0.67896588E-04
   0.34350   0.66131157E-04
   0.34450   0.64718166E-04
   0.34550   0.63582171E-04
   0.34650   0.62669642E-04
   0.34750   0.61941872E-04
   0.34850   0.61370483E-04
   0.34950   0.60934617E-04
   0.35050   0.60619026E-04
   0.35150   0.60412920E-04
   0.35250   0.60309281E-04
   0.35350   0.60304632E-04
   0.35450   0.60399234E-04
   0.35550   0.60597980E-04
   0.35650   0.60912389E-04
   0.35750   0.61364939E-04
   0.35850   0.61998886E-04
   0.35950   0.62902982E-04
   0.36050   0.64285108E-04
   0.36150   0.66740315E-04
   0.36250   0.72124625E-04
   0.36350   0.81444108E-04
   0.36450   0.90850815E-04
   0.36550   0.99396231E-04
   0.36650   0.10741235E-03
   0.36750   0.11518331E-03
   0.36850   0.12291038E-03
   0.36950   0.13075216E-03
   0.37050   0.13885148E-03
   0.37150   0.14735330E-03
   0.37250   0.15641953E-03
   0.37350   0.16624451E-03
   0.37450   0.17707462E-03
   0.37550   0.18923628E-03
   0.37650   0.20317911E-03
   0.37750   0.21954591E-03
   0.37850   0.23928865E-03
   0.37950   0.26384799E-03
   0.38050   0.29523796E-03
   0.38150   0.33362836E-03
   0.38250   0.36257459E-03
   0.38350   0.37282333E-03
   0.38450   0.37950324E-03
   0.38550   0.38355606E-03
   0.38650   0.36739916E-03
   0.38750   0.29459849E-03
   0.38850   0.18191453E-03
   0.38950   0.11000560E-03
   0.39050   0.84876971E-04
   0.39150   0.79024787E-04
   0.39250   0.78423487E-04
   0.39350   0.78494697E-04
   0.39450   0.78013531E-04
   0.39550   0.76784039E-04
   0.39650   0.74898002E-04
   0.39750   0.72506766E-04
   0.39850   0.69754220E-04
   0.39950   0.66760571E-04
   0.40050   0.63621614E-04
   0.40150   0.60412236E-04
   0.40250   0.57190384E-04
   0.40350   0.54000553E-04
   0.40450   0.50876457E-04
   0.40550   0.47842976E-04
   0.40650   0.44917386E-04
   0.40750   0.42109798E-04
   0.40850   0.39422528E-04
   0.40950   0.36847454E-04
   0.41050   0.34358985E-04
   0.41150   0.31894811E-04
   0.41250   0.29297185E-04
   0.41350   0.26120284E-04
   0.41450   0.21662832E-04
   0.41550   0.17444290E-04
   0.41650   0.14553455E-04
   0.41750   0.12555503E-04
   0.41850   0.11121377E-04
   0.41950   0.10072723E-04
   0.42050   0.93074195E-05
   0.42150   0.87635626E-05
   0.42250   0.84026924E-05
   0.42350   0.82015013E-05
   0.42450   0.81476055E-05
   0.42550   0.82375136E-05
   0.42650   0.84759404E-05
   0.42750   0.88761262E-05
   0.42850   0.94610114E-05
   0.42950   0.10265162E-04
   0.43050   0.11337176E-04
   0.43150   0.12741590E-04
   0.43250   0.14557340E-04
   0.43350   0.16865122E-04
   0.43450   0.19706273E-04
   0.43550   0.22983384E-04
   0.43650   0.26284926E-04
   0.43750   0.28737977E-04
   0.43850   0.29242994E-04
   0.43950   0.27291577E-04
   0.44050   0.23536095E-04
   0.44150   0.19220084E-04
   0.44250   0.15273432E-04
   0.44350   0.12059371E-04
   0.44450   0.95827818E-05
   0.44550   0.77161494E-05
   0.44650   0.63155089E-05
   0.44750   0.52598525E-05
   0.44850   0.44573667E-05
   0.44950   0.38411386E-05
   0.45050   0.33630497E-05
   0.45150   0.29885132E-05
   0.45250   0.26925165E-05
   0.45350   0.24568046E-05
   0.45450   0.22679105E-05
   0.45550   0.21157900E-05
   0.45650   0.19928698E-05
   0.45750   0.18933795E-05
   0.45850   0.18128806E-05
   0.45950   0.17479283E-05
   0.46050   0.16958287E-05
   0.46150   0.16544609E-05
   0.46250   0.16221468E-05
   0.46350   0.15975537E-05
   0.46450   0.15796228E-05
   0.46550   0.15675137E-05
   0.46650   0.15605643E-05
   0.46750   0.15582596E-05
   0.46850   0.15602092E-05
   0.46950   0.15661304E-05
   0.47050   0.15758372E-05
   0.47150   0.15892334E-05
   0.47250   0.16063102E-05
   0.47350   0.16271473E-05
   0.47450   0.16519202E-05
   0.47550   0.16809112E-05
   0.47650   0.17145279E-05
   0.47750   0.17533318E-05
   0.47850   0.17980773E-05
   0.47950   0.18497695E-05
   0.48050   0.19097490E-05
   0.48150   0.19798138E-05
   0.48250   0.20624018E-05
   0.48350   0.21608707E-05
   0.48450   0.22799302E-05
   0.48550   0.24263370E-05
   0.48650   0.26100463E-05
   0.48750   0.28461859E-05
   0.48850   0.31585942E-05
   0.48950   0.35864698E-05
   0.49050   0.41975713E-05
   0.49150   0.51160619E-05
   0.49250   0.65849486E-05
   0.49350   0.91120392E-05
   0.49450   0.13786612E-04
   0.49550   0.22474715E-04
   0.49650   0.33582422E-04
   0.49750   0.32716820E-04
   0.49850   0.23272163E-04
   0.49950   0.17925988E-04
   0.50050   0.15067833E-04
   0.50150   0.13242939E-04
   0.50250   0.11992406E-04
   0.50350   0.11117948E-04
   0.50450   0.10513660E-04
   0.50550   0.10116833E-04
   0.50650   0.98886994E-05
   0.50750   0.98054024E-05
   0.50850   0.98533574E-05
   0.50950   0.10026817E-04
   0.51050   0.10326791E-04
   0.51150   0.10760939E-04
   0.51250   0.11344408E-04
   0.51350   0.12101873E-04
   0.51450   0.13071404E-04
   0.51550   0.14311656E-04
   0.51650   0.15915675E-04
   0.51750   0.18039462E-04
   0.51850   0.20967045E-04
   0.51950   0.25268260E-04
   0.52050   0.31961408E-04
   0.52150   0.40183673E-04
   0.52250   0.46982761E-04
   0.52350   0.52863976E-04
   0.52450   0.58512120E-04
   0.52550   0.64243184E-04
   0.52650   0.70237511E-04
   0.52750   0.76629105E-04
   0.52850   0.83538253E-04
   0.52950   0.91078182E-04
   0.53050   0.99318459E-04
   0.53150   0.10805837E-03
   0.53250   0.11549979E-03
   0.53350   0.11469496E-03
   0.53450   0.10686003E-03
   0.53550   0.10000636E-03
   0.53650   0.95074676E-04
   0.53750   0.91660135E-04
   0.53850   0.89419947E-04
   0.53950   0.88139539E-04
   0.54050   0.87699416E-04
   0.54150   0.88054476E-04
   0.54250   0.89234352E-04
   0.54350   0.91374895E-04
   0.54450   0.94820585E-04
   0.54550   0.10044981E-03
   0.54650   0.11094844E-03
   0.54750   0.13910103E-03
   0.54850   0.58144098E-03
   0.54950   0.19672808E-03
   0.55050   0.12843827E-03
   0.55150   0.12112672E-03
   0.55250   0.12687925E-03
   0.55350   0.13585853E-03
   0.55450   0.14286354E-03
   0.55550   0.14807556E-03
   0.55650   0.15545795E-03
   0.55750   0.16413814E-03
   0.55850   0.17132085E-03
   0.55950   0.17557519E-03
   0.56050   0.17629932E-03
   0.56150   0.17331558E-03
   0.56250   0.16685664E-03
   0.56350   0.15877816E-03
   0.56450   0.16552571E-03
   0.56550   0.32049639E-03
   0.56650   0.30911513E-03
   0.56750   0.30002836E-03
   0.56850   0.34042366E-03
   0.56950   0.40675385E-03
   0.57050   0.49239432E-03
   0.57150   0.59927464E-03
   0.57250   0.71240589E-03
   0.57350   0.64754882E-03
   0.57450   0.71927899E-03
   0.57550   0.79048052E-03
   0.57650   0.89664484E-03
   0.57750   0.30242354E-02
   0.57850   0.10406543E-02
   0.57950   0.10483588E-01
   0.58050   0.71559497E-03
   0.58150   0.72004483E-03
   0.58250   0.16124462E-02
   0.58350   0.39858646E-02
   0.58450   0.28558534E-02
   0.58550   0.22789997E-02
   0.58650   0.19029311E-02
   0.58750   0.17863932E-02
   0.58850   0.18505643E-02
   0.58950   0.20408519E-02
   0.59050   0.22337725E-02
   0.59150   0.23883858E-02
   0.59250   0.25145193E-02
   0.59350   0.25708689E-02
   0.59450   0.26055833E-02
   0.59550   0.26155654E-02
   0.59650   0.25657206E-02
   0.59750   0.25050959E-02
   0.59850   0.24390887E-02
   0.59950   0.23466083E-02
   0.60050   0.22449871E-02
   0.60150   0.21510825E-02
   0.60250   0.20540832E-02
   0.60350   0.19441523E-02
   0.60450   0.18312604E-02
   0.60550   0.17271158E-02
   0.60650   0.16303975E-02
   0.60750   0.15336329E-02
   0.60850   0.14346513E-02
   0.60950   0.13380087E-02
   0.61050   0.12475811E-02
   0.61150   0.11625934E-02
   0.61250   0.10805792E-02
   0.61350   0.10013077E-02
   0.61450   0.92680240E-03
   0.61550   0.85808506E-03
   0.61650   0.79297618E-03
   0.61750   0.72713732E-03
   0.61850   0.66452875E-03
   0.61950   0.62224735E-03
   0.62050   0.59589546E-03
   0.62150   0.57860865E-03
   0.62250   0.56975358E-03
   0.62350   0.57424005E-03
   0.62450   0.60788792E-03
   0.62550   0.62478974E-03
   0.62650   0.43127598E-03
   0.62750   0.37668610E-03
   0.62850   0.35695508E-03
   0.62950   0.34071834E-03
   0.63050   0.32514101E-03
   0.63150   0.31052940E-03
   0.63250   0.29741888E-03
   0.63350   0.28606196E-03
   0.63450   0.27634326E-03
   0.63550   0.26789351E-03
   0.63650   0.26029648E-03
   0.63750   0.25326957E-03
   0.63850   0.24673674E-03
   0.63950   0.24077992E-03
   0.64050   0.23551550E-03
   0.64150   0.23097474E-03
   0.64250   0.22705420E-03
   0.64350   0.22355215E-03
   0.64450   0.22025360E-03
   0.64550   0.21700961E-03
   0.64650   0.21377452E-03
   0.64750   0.21059308E-03
   0.64850   0.20755270E-03
   0.64950   0.20472710E-03
   0.65050   0.20213741E-03
   0.65150   0.19974470E-03
   0.65250   0.19747017E-03
   0.65350   0.19522735E-03
   0.65450   0.19294974E-03
   0.65550   0.19060526E-03
   0.65650   0.18819601E-03
   0.65750   0.18574733E-03
   0.65850   0.18329221E-03
   0.65950   0.18085683E-03
   0.66050   0.17845161E-03
   0.66150   0.17606991E-03
   0.66250   0.17369291E-03
   0.66350   0.17129732E-03
   0.66450   0.16886240E-03
   0.66550   0.16637459E-03
   0.66650   0.16382874E-03
   0.66750   0.16122684E-03
   0.66850   0.15857544E-03
   0.66950   0.15588249E-03
   0.67050   0.15315498E-03
   0.67150   0.15039767E-03
   0.67250   0.14761325E-03
   0.67350   0.14480375E-03
   0.67450   0.14197275E-03
   0.67550   0.13912756E-03
   0.67650   0.13628122E-03
   0.67750   0.13345336E-03
   0.67850   0.13067004E-03
   0.67950   0.12796211E-03
   0.68050   0.12536239E-03
   0.68150   0.12290118E-03
   0.68250   0.12059872E-03
   0.68350   0.11844828E-03
   0.68450   0.11636828E-03
   0.68550   0.11403392E-03
   0.68650   0.11021201E-03
   0.68750   0.10242885E-03
   0.68850   0.94714160E-04
   0.68950   0.90647154E-04
   0.69050   0.89426605E-04
   0.69150   0.90248199E-04
   0.69250   0.92629227E-04
   0.69350   0.96271120E-04
   0.69450   0.10098047E-03
   0.69550   0.10663142E-03
   0.69650   0.11314842E-03
   0.69750   0.12049946E-03
   0.69850   0.12869587E-03
   0.69950   0.13779740E-03
   0.70050   0.14792214E-03
   0.70150   0.15925840E-03
   0.70250   0.17205389E-03
   0.70350   0.18642312E-03
   0.70450   0.20082010E-03
   0.70550   0.20458184E-03
   0.70650   0.19090474E-03
   0.70750   0.17489259E-03
   0.70850   0.16105828E-03
   0.70950   0.14940224E-03
   0.71050   0.13953756E-03
   0.71150   0.13115235E-03
   0.71250   0.12402514E-03
   0.71350   0.11799848E-03
   0.71450   0.11295699E-03
   0.71550   0.10881267E-03
   0.71650   0.10549551E-03
   0.71750   0.10294731E-03
   0.71850   0.10111776E-03
   0.71950   0.99961777E-04
   0.72050   0.99437857E-04
   0.72150   0.99507030E-04
   0.72250   0.10013234E-03
   0.72350   0.10127868E-03
   0.72450   0.10291302E-03
   0.72550   0.10500509E-03
   0.72650   0.10752869E-03
   0.72750   0.11046441E-03
   0.72850   0.11380579E-03
   0.72950   0.11757517E-03
   0.73050   0.12187503E-03
   0.73150   0.12709384E-03
   0.73250   0.13445553E-03
   0.73350   0.14404177E-03
   0.73450   0.15414292E-03
   0.73550   0.16450633E-03
   0.73650   0.17522820E-03
   0.73750   0.18639048E-03
   0.73850   0.19805206E-03
   0.73950   0.21026000E-03
   0.74050   0.22305733E-03
   0.74150   0.23648815E-03
   0.74250   0.25060109E-03
   0.74350   0.26545211E-03
   0.74450   0.28110715E-03
   0.74550   0.29764473E-03
   0.74650   0.31515872E-03
   0.74750   0.33376153E-03
   0.74850   0.35358788E-03
   0.74950   0.37479916E-03
   0.75050   0.39758882E-03
   0.75150   0.42218887E-03
   0.75250   0.44887801E-03
   0.75350   0.47799177E-03
   0.75450   0.50993531E-03
   0.75550   0.54519996E-03
   0.75650   0.58438448E-03
   0.75750   0.62822300E-03
   0.75850   0.67762181E-03
   0.75950   0.73370925E-03
   0.76050   0.79790311E-03
   0.76150   0.87200361E-03
   0.76250   0.95832330E-03
   0.76350   0.10598706E-02
   0.76450   0.11806119E-02
   0.76550   0.13258500E-02
   0.76650   0.15027709E-02
   0.76750   0.17212400E-02
   0.76850   0.19949693E-02
   0.76950   0.23433536E-02
   0.77050   0.27952211E-02
   0.77150   0.34016741E-02
   0.77250   0.42938394E-02
   0.77350   0.60855602E-02
   0.77450   0.42613549E-02
   0.77550   0.35704973E-02
   0.77650   0.35593489E-02
   0.77750   0.37053393E-02
   0.77850   0.40692613E-02
   0.77950   0.46458715E-02
   0.78050   0.51970831E-02
   0.78150   0.52767517E-02
   0.78250   0.49652816E-02
   0.78350   0.52321912E-02
   0.78450   0.59422562E-02
   0.78550   0.70108850E-02
   0.78650   0.85844537E-02
   0.78750   0.11595092E-01
   0.78850   0.14315506E-01
   0.78950   0.13844480E-01
   0.79050   0.18754292E-01
   0.79150   0.30862899E-01
   0.79250   0.62529668E-01
   0.79350   0.19647656E+00
   0.79450   0.28855261E+00
   0.79550   0.16357200E+00
   0.79650   0.15205196E+00
   0.79750   0.90796195E-01
   0.79850   0.64123392E-01
   0.79950   0.48298940E-01
   0.80050   0.38161870E-01
   0.80150   0.33149969E-01
   0.80250   0.28796010E-01
   0.80350   0.24348572E-01
   0.80450   0.20963367E-01
   0.80550   0.18498624E-01
   0.80650   0.16593106E-01
   0.80750   0.14962809E-01
   0.80850   0.13592531E-01
   0.80950   0.12522605E-01
   0.81050   0.11722075E-01
   0.81150   0.11182003E-01
   0.81250   0.10846957E-01
   0.81350   0.10576961E-01
   0.81450   0.10273330E-01
   0.81550   0.99432645E-02
   0.81650   0.96304938E-02
   0.81750   0.93479464E-02
   0.81850   0.90885237E-02
   0.81950   0.88528497E-02
   0.82050   0.86525725E-02
   0.82150   0.84993681E-02
   0.82250   0.83942162E-02
   0.82350   0.83260806E-02
   0.82450   0.82843052E-02
   0.82550   0.82855532E-02
   0.82650   0.83649466E-02
   0.82750   0.84725451E-02
   0.82850   0.85906517E-02
   0.82950   0.87260790E-02
   0.83050   0.88765686E-02
   0.83150   0.90310033E-02
   0.83250   0.91734109E-02
   0.83350   0.92892954E-02
   0.83450   0.93729161E-02
   0.83550   0.94288392E-02
   0.83650   0.94663948E-02
   0.83750   0.94966991E-02
   0.83850   0.95380656E-02
   0.83950   0.96200090E-02
   0.84050   0.97740926E-02
   0.84150   0.10018479E-01
   0.84250   0.10337741E-01
   0.84350   0.10575626E-01
   0.84450   0.10577749E-01
   0.84550   0.10510919E-01
   0.84650   0.10476253E-01
   0.84750   0.10419722E-01
   0.84850   0.10281233E-01
   0.84950   0.10240948E-01
   0.85050   0.10313532E-01
   0.85150   0.10456747E-01
   0.85250   0.10645520E-01
   0.85350   0.10857508E-01
   0.85450   0.11065688E-01
   0.85550   0.11251909E-01
   0.85650   0.11425914E-01
   0.85750   0.11613159E-01
   0.85850   0.11825562E-01
   0.85950   0.12053513E-01
   0.86050   0.12275301E-01
   0.86150   0.12471146E-01
   0.86250   0.12637303E-01
   0.86350   0.12790883E-01
   0.86450   0.12961455E-01
   0.86550   0.13179641E-01
   0.86650   0.13471382E-01
   0.86750   0.13856284E-01
   0.86850   0.14345008E-01
   0.86950   0.14933824E-01
   0.87050   0.15601119E-01
   0.87150   0.16315900E-01
   0.87250   0.17060626E-01
   0.87350   0.17850002E-01
   0.87450   0.18725498E-01
   0.87550   0.19732524E-01
   0.87650   0.20901352E-01
   0.87750   0.22240601E-01
   0.87850   0.23740174E-01
   0.87950   0.25379594E-01
   0.88050   0.27139420E-01
   0.88150   0.29011706E-01
   0.88250   0.31002399E-01
   0.88350   0.33120532E-01
   0.88450   0.35358269E-01
   0.88550   0.37674569E-01
   0.88650   0.39994992E-01
   0.88750   0.42231224E-01
   0.88850   0.44312090E-01
   0.88950   0.46209335E-01
   0.89050   0.47943387E-01
   0.89150   0.49566764E-01
   0.89250   0.51136151E-01
   0.89350   0.52688509E-01
   0.89450   0.54233871E-01
   0.89550   0.55773031E-01
   0.89650   0.57339411E-01
   0.89750   0.59046108E-01
   0.89850   0.61107773E-01
   0.89950   0.63844681E-01
   0.90050   0.67759611E-01
   0.90150   0.73113732E-01
   0.90250   0.78862339E-01
   0.90350   0.84120058E-01
   0.90450   0.89141078E-01
   0.90550   0.94282083E-01
   0.90650   0.99775314E-01
   0.90750   0.10580793E+00
   0.90850   0.11254520E+00
   0.90950   0.12014342E+00
   0.91050   0.12876669E+00
   0.91150   0.13861193E+00
   0.91250   0.14995632E+00
   0.91350   0.16327745E+00
   0.91450   0.17960642E+00
   0.91550   0.20155531E+00
   0.91650   0.22836740E+00
   0.91750   0.18826161E+00
   0.91850   0.21760938E+00
   0.91950   0.25929984E+00
   0.92050   0.30037418E+00
   0.92150   0.30984709E+00
   0.92250   0.40437281E+00
   0.92350   0.39915884E+00
   0.92450   0.48614621E+00
   0.92550   0.60816836E+00
   0.92650   0.56808579E+00
   0.92750   0.63991416E+00
   0.92850   0.70278805E+00
   0.92950   0.86788011E+00
   0.93050   0.10033654E+01
   0.93150   0.97399759E+00
   0.93250   0.98703933E+00
   0.93350   0.11257221E+01
   0.93450   0.13377576E+01
   0.93550   0.13576286E+01
   0.93650   0.13836467E+01
   0.93750   0.12433151E+01
   0.93850   0.11094805E+01
   0.93950   0.10357041E+01
   0.94050   0.10644494E+01
   0.94150   0.10564095E+01
   0.94250   0.10144906E+01
   0.94350   0.96705538E+00
   0.94450   0.92245394E+00
   0.94550   0.89002264E+00
   0.94650   0.86855292E+00
   0.94750   0.84452987E+00
   0.94850   0.80815524E+00
   0.94950   0.76716554E+00
   0.95050   0.73117614E+00
   0.95150   0.69862133E+00
   0.95250   0.66311151E+00
   0.95350   0.62558323E+00
   0.95450   0.59575254E+00
   0.95550   0.58411157E+00
   0.95650   0.58597606E+00
   0.95750   0.58626616E+00
   0.95850   0.58220947E+00
   0.95950   0.57658863E+00
   0.96050   0.57214701E+00
   0.96150   0.57112998E+00
   0.96250   0.57510972E+00
   0.96350   0.58460367E+00
   0.96450   0.59871984E+00
   0.96550   0.61485326E+00
   0.96650   0.62950414E+00
   0.96750   0.64072812E+00
   0.96850   0.64817321E+00
   0.96950   0.65035772E+00
   0.97050   0.65153456E+00
   0.97150   0.65684742E+00
   0.97250   0.66384327E+00
   0.97350   0.67098874E+00
   0.97450   0.68042213E+00
   0.97550   0.69412893E+00
   0.97650   0.71268737E+00
   0.97750   0.73592103E+00
   0.97850   0.76068074E+00
   0.97950   0.77798563E+00
   0.98050   0.77933490E+00
   0.98150   0.77517432E+00
   0.98250   0.78015399E+00
   0.98350   0.79251087E+00
   0.98450   0.80219340E+00
   0.98550   0.80529618E+00
   0.98650   0.80198783E+00
   0.98750   0.79201955E+00
   0.98850   0.78164709E+00
   0.98950   0.77859783E+00
   0.99050   0.78249675E+00
   0.99150   0.79240584E+00
   0.99250   0.80860972E+00
   0.99350   0.83079797E+00
   0.99450   0.85690713E+00
   0.99550   0.88653666E+00
   0.99650   0.92032325E+00
   0.99750   0.95757538E+00
   0.99850   0.99662578E+00
   0.99950   0.10358206E+01
