# Transmission, k-averaged
# Date: 2021-05-13
#   E [eV]           T [G0]
   0.00050   0.11860754E-01
   0.00150   0.22516584E-01
   0.00250   0.32533232E-01
   0.00350   0.69581554E-02
   0.00450   0.38942192E-02
   0.00550   0.73418966E-02
   0.00650   0.16745196E-02
   0.00750   0.13749429E-02
   0.00850   0.61201677E-02
   0.00950   0.57932414E-03
   0.01050   0.73168759E-03
   0.01150   0.86229229E-02
   0.01250   0.61722903E-03
   0.01350   0.33639136E-03
   0.01450   0.66017115E-03
   0.01550   0.73554716E-02
   0.01650   0.74552384E-03
   0.01750   0.31718542E-03
   0.01850   0.34901738E-03
   0.01950   0.97940932E-03
   0.02050   0.85354410E-02
   0.02150   0.87539060E-03
   0.02250   0.37214431E-03
   0.02350   0.33862080E-03
   0.02450   0.57403324E-03
   0.02550   0.26262808E-02
   0.02650   0.60319249E-02
   0.02750   0.87109406E-03
   0.02850   0.43797409E-03
   0.02950   0.39697110E-03
   0.03050   0.58888510E-03
   0.03150   0.17621825E-02
   0.03250   0.18203782E-01
   0.03350   0.19623353E-02
   0.03450   0.66968863E-03
   0.03550   0.45569241E-03
   0.03650   0.48195268E-03
   0.03750   0.79968845E-03
   0.03850   0.27321035E-02
   0.03950   0.99451998E-02
   0.04050   0.14779590E-02
   0.04150   0.58565842E-03
   0.04250   0.40470008E-03
   0.04350   0.41263431E-03
   0.04450   0.60557853E-03
   0.04550   0.97164197E-03
   0.04650   0.65027276E-03
   0.04750   0.26994222E-03
   0.04850   0.13345927E-03
   0.04950   0.82197614E-04
   0.05050   0.60093786E-04
   0.05150   0.49669903E-04
   0.05250   0.43970333E-04
   0.05350   0.38956237E-04
   0.05450   0.32346161E-04
   0.05550   0.24647539E-04
   0.05650   0.17853585E-04
   0.05750   0.12929171E-04
   0.05850   0.96689873E-05
   0.05950   0.75510097E-05
   0.06050   0.61394976E-05
   0.06150   0.51385568E-05
   0.06250   0.43591235E-05
   0.06350   0.36910528E-05
   0.06450   0.30875012E-05
   0.06550   0.25458767E-05
   0.06650   0.20804518E-05
   0.06750   0.16999717E-05
   0.06850   0.14006381E-05
   0.06950   0.11700043E-05
   0.07050   0.99290753E-06
   0.07150   0.85523749E-06
   0.07250   0.74545704E-06
   0.07350   0.65491281E-06
   0.07450   0.57767596E-06
   0.07550   0.51016855E-06
   0.07650   0.45059949E-06
   0.07750   0.39826679E-06
   0.07850   0.35289779E-06
   0.07950   0.31420223E-06
   0.08050   0.28168844E-06
   0.08150   0.25466991E-06
   0.08250   0.23235410E-06
   0.08350   0.21393842E-06
   0.08450   0.19868239E-06
   0.08550   0.18595379E-06
   0.08650   0.17525456E-06
   0.08750   0.16622742E-06
   0.08850   0.15863419E-06
   0.08950   0.15226151E-06
   0.09050   0.14652915E-06
   0.09150   0.13849503E-06
   0.09250   0.11968923E-06
   0.09350   0.96368133E-07
   0.09450   0.77927240E-07
   0.09550   0.63981609E-07
   0.09650   0.53211217E-07
   0.09750   0.44705843E-07
   0.09850   0.37878429E-07
   0.09950   0.32339234E-07
   0.10050   0.27815890E-07
   0.10150   0.24106516E-07
   0.10250   0.21053102E-07
   0.10350   0.18527002E-07
   0.10450   0.16421444E-07
   0.10550   0.14647767E-07
   0.10650   0.13133436E-07
   0.10750   0.11820649E-07
   0.10850   0.10665028E-07
   0.10950   0.96341113E-08
   0.11050   0.87055989E-08
   0.11150   0.78653777E-08
   0.11250   0.71054025E-08
   0.11350   0.64215890E-08
   0.11450   0.58118625E-08
   0.11550   0.52745390E-08
   0.11650   0.48071405E-08
   0.11750   0.44057007E-08
   0.11850   0.40645385E-08
   0.11950   0.37764134E-08
   0.12050   0.35329570E-08
   0.12150   0.33252532E-08
   0.12250   0.31444696E-08
   0.12350   0.29824512E-08
   0.12450   0.28322202E-08
   0.12550   0.26883380E-08
   0.12650   0.25471065E-08
   0.12750   0.24065998E-08
   0.12850   0.22665341E-08
   0.12950   0.21279973E-08
   0.13050   0.19930775E-08
   0.13150   0.18644344E-08
   0.13250   0.17448698E-08
   0.13350   0.16369346E-08
   0.13450   0.15426153E-08
   0.13550   0.14631160E-08
   0.13650   0.13987453E-08
   0.13750   0.13489043E-08
   0.13850   0.13121615E-08
   0.13950   0.12864001E-08
   0.14050   0.12690162E-08
   0.14150   0.12571487E-08
   0.14250   0.12479194E-08
   0.14350   0.12386651E-08
   0.14450   0.12271404E-08
   0.14550   0.12116793E-08
   0.14650   0.11912993E-08
   0.14750   0.11657461E-08
   0.14850   0.11354769E-08
   0.14950   0.11015879E-08
   0.15050   0.10656963E-08
   0.15150   0.10297889E-08
   0.15250   0.99605035E-09
   0.15350   0.96668318E-09
   0.15450   0.94372998E-09
   0.15550   0.92890701E-09
   0.15650   0.92345631E-09
   0.15750   0.92802521E-09
   0.15850   0.94257957E-09
   0.15950   0.96635877E-09
   0.16050   0.99788067E-09
   0.16150   0.10350009E-08
   0.16250   0.10750312E-08
   0.16350   0.11149167E-08
   0.16450   0.11514645E-08
   0.16550   0.11816144E-08
   0.16650   0.12027306E-08
   0.16750   0.12128907E-08
   0.16850   0.12111335E-08
   0.16950   0.11976200E-08
   0.17050   0.11736301E-08
   0.17150   0.11412639E-08
   0.17250   0.11025044E-08
   0.17350   0.10565212E-08
   0.17450   0.99067499E-09
   0.17550   0.85830204E-09
   0.17650   0.67128947E-09
   0.17750   0.54067656E-09
   0.17850   0.46103144E-09
   0.17950   0.41007847E-09
   0.18050   0.37506151E-09
   0.18150   0.34866482E-09
   0.18250   0.32645192E-09
   0.18350   0.30569497E-09
   0.18450   0.28480215E-09
   0.18550   0.26299785E-09
   0.18650   0.24011160E-09
   0.18750   0.21641575E-09
   0.18850   0.19248611E-09
   0.18950   0.16907709E-09
   0.19050   0.14700979E-09
   0.19150   0.12707518E-09
   0.19250   0.10995447E-09
   0.19350   0.96159233E-10
   0.19450   0.85992373E-10
   0.19550   0.79529876E-10
   0.19650   0.76622132E-10
   0.19750   0.76912553E-10
   0.19850   0.79870471E-10
   0.19950   0.84834618E-10
   0.20050   0.91063455E-10
   0.20150   0.97788479E-10
   0.20250   0.10426701E-09
   0.20350   0.10983128E-09
   0.20450   0.11393118E-09
   0.20550   0.11616860E-09
   0.20650   0.11632208E-09
   0.20750   0.11436076E-09
   0.20850   0.11044737E-09
   0.20950   0.10493083E-09
   0.21050   0.98328831E-10
   0.21150   0.91302056E-10
   0.21250   0.84621261E-10
   0.21350   0.79127878E-10
   0.21450   0.75682745E-10
   0.21550   0.75063060E-10
   0.21650   0.77539648E-10
   0.21750   0.80738950E-10
   0.21850   0.80480164E-10
   0.21950   0.80127301E-10
   0.22050   0.80736542E-10
   0.22150   0.81695810E-10
   0.22250   0.82517077E-10
   0.22350   0.82925909E-10
   0.22450   0.82805866E-10
   0.22550   0.82154866E-10
   0.22650   0.81055440E-10
   0.22750   0.79652972E-10
   0.22850   0.78139079E-10
   0.22950   0.76739087E-10
   0.23050   0.75704172E-10
   0.23150   0.75309793E-10
   0.23250   0.75858958E-10
   0.23350   0.77639499E-10
   0.23450   0.80306949E-10
   0.23550   0.81933238E-10
   0.23650   0.83393015E-10
   0.23750   0.85582597E-10
   0.23850   0.88263126E-10
   0.23950   0.91104013E-10
   0.24050   0.93863861E-10
   0.24150   0.96398708E-10
   0.24250   0.98647049E-10
   0.24350   0.10061216E-09
   0.24450   0.10234482E-09
   0.24550   0.10392716E-09
   0.24650   0.10545820E-09
   0.24750   0.10704133E-09
   0.24850   0.10877411E-09
   0.24950   0.11074052E-09
   0.25050   0.11300576E-09
   0.25150   0.11561343E-09
   0.25250   0.11858474E-09
   0.25350   0.12191959E-09
   0.25450   0.12559889E-09
   0.25550   0.12958783E-09
   0.25650   0.13383947E-09
   0.25750   0.13829868E-09
   0.25850   0.14290553E-09
   0.25950   0.14759861E-09
   0.26050   0.15231756E-09
   0.26150   0.15700516E-09
   0.26250   0.16160893E-09
   0.26350   0.16608230E-09
   0.26450   0.17038541E-09
   0.26550   0.17448593E-09
   0.26650   0.17835965E-09
   0.26750   0.18199139E-09
   0.26850   0.18537585E-09
   0.26950   0.18851867E-09
   0.27050   0.19143756E-09
   0.27150   0.19416338E-09
   0.27250   0.19674092E-09
   0.27350   0.19922923E-09
   0.27450   0.20170132E-09
   0.27550   0.20424282E-09
   0.27650   0.20694968E-09
   0.27750   0.20992472E-09
   0.27850   0.21327315E-09
   0.27950   0.21709735E-09
   0.28050   0.22149119E-09
   0.28150   0.22653446E-09
   0.28250   0.23228812E-09
   0.28350   0.23879093E-09
   0.28450   0.24605826E-09
   0.28550   0.25408325E-09
   0.28650   0.26284153E-09
   0.28750   0.27229857E-09
   0.28850   0.28242064E-09
   0.28950   0.29318833E-09
   0.29050   0.30461209E-09
   0.29150   0.31674929E-09
   0.29250   0.32972125E-09
   0.29350   0.34372971E-09
   0.29450   0.35907152E-09
   0.29550   0.37615244E-09
   0.29650   0.39550285E-09
   0.29750   0.41781070E-09
   0.29850   0.44401569E-09
   0.29950   0.47506976E-09
   0.30050   0.51069277E-09
   0.30150   0.55073301E-09
   0.30250   0.59556643E-09
   0.30350   0.64573158E-09
   0.30450   0.70189560E-09
   0.30550   0.76487677E-09
   0.30650   0.83567853E-09
   0.30750   0.91553010E-09
   0.30850   0.10059344E-08
   0.30950   0.11087258E-08
   0.31050   0.12261376E-08
   0.31150   0.13608868E-08
   0.31250   0.15162759E-08
   0.31350   0.16963220E-08
   0.31450   0.19059232E-08
   0.31550   0.21510731E-08
   0.31650   0.24391482E-08
   0.31750   0.27792955E-08
   0.31850   0.31829688E-08
   0.31950   0.36646821E-08
   0.32050   0.42430903E-08
   0.32150   0.49425664E-08
   0.32250   0.57955480E-08
   0.32350   0.68461024E-08
   0.32450   0.81554417E-08
   0.32550   0.98106350E-08
   0.32650   0.11938656E-07
   0.32750   0.14729486E-07
   0.32850   0.18474836E-07
   0.32950   0.23634163E-07
   0.33050   0.30948531E-07
   0.33150   0.41637644E-07
   0.33250   0.57736230E-07
   0.33350   0.82643197E-07
   0.33450   0.12192355E-06
   0.33550   0.18417717E-06
   0.33650   0.28109810E-06
   0.33750   0.42464416E-06
   0.33850   0.61912414E-06
   0.33950   0.85100504E-06
   0.34050   0.10879736E-05
   0.34150   0.12947989E-05
   0.34250   0.14526631E-05
   0.34350   0.15636706E-05
   0.34450   0.16419233E-05
   0.34550   0.17034827E-05
   0.34650   0.17613579E-05
   0.34750   0.18246541E-05
   0.34850   0.18994799E-05
   0.34950   0.19901634E-05
   0.35050   0.21002711E-05
   0.35150   0.22333807E-05
   0.35250   0.23936959E-05
   0.35350   0.25866234E-05
   0.35450   0.28194215E-05
   0.35550   0.31020593E-05
   0.35650   0.34484576E-05
   0.35750   0.38784015E-05
   0.35850   0.44206140E-05
   0.35950   0.51179454E-05
   0.36050   0.60367006E-05
   0.36150   0.72856951E-05
   0.36250   0.90693338E-05
   0.36350   0.11825447E-04
   0.36450   0.16284026E-04
   0.36550   0.23706023E-04
   0.36650   0.36559421E-04
   0.36750   0.59864800E-04
   0.36850   0.10427962E-03
   0.36950   0.19353162E-03
   0.37050   0.38327367E-03
   0.37150   0.81141462E-03
   0.37250   0.18362828E-02
   0.37350   0.43855184E-02
   0.37450   0.10375978E-01
   0.37550   0.20420145E-01
   0.37650   0.27888764E-01
   0.37750   0.28517896E-01
   0.37850   0.25563337E-01
   0.37950   0.21143112E-01
   0.38050   0.16375452E-01
   0.38150   0.12314457E-01
   0.38250   0.93824333E-02
   0.38350   0.73156185E-02
   0.38450   0.58948854E-02
   0.38550   0.49894312E-02
   0.38650   0.45019225E-02
   0.38750   0.44028829E-02
   0.38850   0.47844220E-02
   0.38950   0.60368711E-02
   0.39050   0.96556237E-02
   0.39150   0.22893703E-01
   0.39250   0.36854144E-01
   0.39350   0.82952632E-02
   0.39450   0.20747650E-02
   0.39550   0.67005149E-03
   0.39650   0.16953098E-02
   0.39750   0.24421571E-03
   0.39850   0.60561622E-04
   0.39950   0.50327064E-04
   0.40050   0.11805604E-03
   0.40150   0.16954386E-03
   0.40250   0.19392886E-03
   0.40350   0.21313448E-03
   0.40450   0.23451669E-03
   0.40550   0.25075531E-03
   0.40650   0.27469720E-03
   0.40750   0.30504091E-03
   0.40850   0.32818029E-03
   0.40950   0.34096060E-03
   0.41050   0.35115005E-03
   0.41150   0.36177287E-03
   0.41250   0.36449332E-03
   0.41350   0.33832842E-03
   0.41450   0.25720504E-03
   0.41550   0.17174042E-03
   0.41650   0.11924114E-03
   0.41750   0.86900443E-04
   0.41850   0.65347085E-04
   0.41950   0.50003015E-04
   0.42050   0.38597449E-04
   0.42150   0.29930930E-04
   0.42250   0.23289762E-04
   0.42350   0.18182589E-04
   0.42450   0.14238046E-04
   0.42550   0.11170443E-04
   0.42650   0.87654416E-05
   0.42750   0.68676281E-05
   0.42850   0.53666340E-05
   0.42950   0.41833991E-05
   0.43050   0.32587607E-05
   0.43150   0.25456065E-05
   0.43250   0.20045413E-05
   0.43350   0.16020608E-05
   0.43450   0.13099793E-05
   0.43550   0.11051338E-05
   0.43650   0.96887675E-06
   0.43750   0.88627576E-06
   0.43850   0.84516671E-06
   0.43950   0.83527033E-06
   0.44050   0.84754345E-06
   0.44150   0.87383688E-06
   0.44250   0.90683545E-06
   0.44350   0.94018327E-06
   0.44450   0.96867791E-06
   0.44550   0.98843157E-06
   0.44650   0.99693739E-06
   0.44750   0.99301599E-06
   0.44850   0.97665065E-06
   0.44950   0.94873673E-06
   0.45050   0.91078869E-06
   0.45150   0.86465178E-06
   0.45250   0.81226375E-06
   0.45350   0.75549485E-06
   0.45450   0.69607256E-06
   0.45550   0.63557036E-06
   0.45650   0.57542366E-06
   0.45750   0.51693621E-06
   0.45850   0.46125425E-06
   0.45950   0.40930968E-06
   0.46050   0.36175524E-06
   0.46150   0.31892245E-06
   0.46250   0.28082417E-06
   0.46350   0.24720649E-06
   0.46450   0.21763562E-06
   0.46550   0.19159776E-06
   0.46650   0.16859074E-06
   0.46750   0.14819415E-06
   0.46850   0.13011717E-06
   0.46950   0.11423815E-06
   0.47050   0.10067441E-06
   0.47150   0.89981462E-07
   0.47250   0.83787967E-07
   0.47350   0.87079520E-07
   0.47450   0.11847010E-06
   0.47550   0.27512158E-06
   0.47650   0.13041246E-05
   0.47750   0.42300771E-05
   0.47850   0.14332345E-05
   0.47950   0.45535705E-06
   0.48050   0.22314153E-06
   0.48150   0.13904328E-06
   0.48250   0.97888950E-07
   0.48350   0.73532746E-07
   0.48450   0.57241802E-07
   0.48550   0.45431054E-07
   0.48650   0.36398152E-07
   0.48750   0.29248056E-07
   0.48850   0.23479299E-07
   0.48950   0.18804643E-07
   0.49050   0.15065085E-07
   0.49150   0.12184651E-07
   0.49250   0.10145639E-07
   0.49350   0.89777172E-08
   0.49450   0.87627399E-08
   0.49550   0.96673931E-08
   0.49650   0.12041522E-07
   0.49750   0.16710082E-07
   0.49850   0.25666463E-07
   0.49950   0.42404135E-07
   0.50050   0.77096182E-07
   0.50150   0.16885510E-06
   0.50250   0.49404196E-06
   0.50350   0.16817959E-05
   0.50450   0.20411098E-05
   0.50550   0.68065782E-06
   0.50650   0.24159351E-06
   0.50750   0.12395957E-06
   0.50850   0.84344357E-07
   0.50950   0.68968752E-07
   0.51050   0.63337104E-07
   0.51150   0.62597749E-07
   0.51250   0.64839121E-07
   0.51350   0.69215751E-07
   0.51450   0.75323712E-07
   0.51550   0.82964412E-07
   0.51650   0.92049568E-07
   0.51750   0.10256525E-06
   0.51850   0.11456272E-06
   0.51950   0.12816068E-06
   0.52050   0.14364758E-06
   0.52150   0.16264703E-06
   0.52250   0.18790048E-06
   0.52350   0.22085909E-06
   0.52450   0.26350114E-06
   0.52550   0.31903519E-06
   0.52650   0.39240223E-06
   0.52750   0.49120644E-06
   0.52850   0.62735330E-06
   0.52950   0.81997774E-06
   0.53050   0.11009394E-05
   0.53150   0.15260287E-05
   0.53250   0.22018094E-05
   0.53350   0.33521180E-05
   0.53450   0.53736230E-05
   0.53550   0.90739195E-05
   0.53650   0.16521990E-04
   0.53750   0.33837652E-04
   0.53850   0.85370135E-04
   0.53950   0.31118962E-03
   0.54050   0.10919335E-02
   0.54150   0.46498055E-03
   0.54250   0.20363294E-03
   0.54350   0.12907357E-03
   0.54450   0.10287762E-03
   0.54550   0.96266740E-04
   0.54650   0.98246703E-04
   0.54750   0.11482890E-03
   0.54850   0.22404522E-03
   0.54950   0.44300515E-03
   0.55050   0.55836001E-03
   0.55150   0.25422702E-03
   0.55250   0.29450454E-03
   0.55350   0.50148391E-03
   0.55450   0.17373903E-03
   0.55550   0.13423749E-04
   0.55650   0.16914615E-04
   0.55750   0.10424260E-04
   0.55850   0.10412208E-04
   0.55950   0.13514901E-04
   0.56050   0.15633557E-04
   0.56150   0.15557449E-04
   0.56250   0.11880669E-04
   0.56350   0.79986430E-05
   0.56450   0.58441547E-05
   0.56550   0.47301269E-05
   0.56650   0.41316684E-05
   0.56750   0.40113387E-05
   0.56850   0.43197001E-05
   0.56950   0.48154375E-05
   0.57050   0.50748963E-05
   0.57150   0.47728508E-05
   0.57250   0.40254904E-05
   0.57350   0.31549173E-05
   0.57450   0.23571463E-05
   0.57550   0.17035651E-05
   0.57650   0.12281339E-05
   0.57750   0.94710555E-06
   0.57850   0.84763525E-06
   0.57950   0.89594431E-06
   0.58050   0.10548958E-05
   0.58150   0.12889941E-05
   0.58250   0.15610196E-05
   0.58350   0.18342321E-05
   0.58450   0.20821917E-05
   0.58550   0.22947609E-05
   0.58650   0.24729884E-05
   0.58750   0.26185774E-05
   0.58850   0.27265962E-05
   0.58950   0.27851472E-05
   0.59050   0.27813624E-05
   0.59150   0.27098240E-05
   0.59250   0.25774145E-05
   0.59350   0.24010262E-05
   0.59450   0.22005572E-05
   0.59550   0.19926417E-05
   0.59650   0.17882022E-05
   0.59750   0.15932819E-05
   0.59850   0.14111458E-05
   0.59950   0.12440420E-05
   0.60050   0.10939568E-05
   0.60150   0.96249209E-06
   0.60250   0.85041125E-06
   0.60350   0.75738211E-06
   0.60450   0.68210193E-06
   0.60550   0.62267412E-06
   0.60650   0.57701340E-06
   0.60750   0.54313819E-06
   0.60850   0.51931778E-06
   0.60950   0.50408784E-06
   0.61050   0.49616301E-06
   0.61150   0.49429087E-06
   0.61250   0.49712264E-06
   0.61350   0.50318340E-06
   0.61450   0.51097561E-06
   0.61550   0.51903470E-06
   0.61650   0.52472916E-06
   0.61750   0.51440537E-06
   0.61850   0.44329485E-06
   0.61950   0.34535790E-06
   0.62050   0.27533770E-06
   0.62150   0.23013821E-06
   0.62250   0.19858362E-06
   0.62350   0.17368262E-06
   0.62450   0.15390286E-06
   0.62550   0.13707910E-06
   0.62650   0.12214505E-06
   0.62750   0.10904131E-06
   0.62850   0.98226636E-07
   0.62950   0.90341736E-07
   0.63050   0.85987303E-07
   0.63150   0.85583615E-07
   0.63250   0.89295625E-07
   0.63350   0.97013832E-07
   0.63450   0.10838416E-06
   0.63550   0.12287943E-06
   0.63650   0.13990356E-06
   0.63750   0.15891800E-06
   0.63850   0.17957981E-06
   0.63950   0.20188408E-06
   0.64050   0.22631038E-06
   0.64150   0.25398444E-06
   0.64250   0.28688237E-06
   0.64350   0.32812954E-06
   0.64450   0.38248510E-06
   0.64550   0.45717653E-06
   0.64650   0.56339309E-06
   0.64750   0.71905407E-06
   0.64850   0.95415464E-06
   0.64950   0.13216215E-05
   0.65050   0.19207880E-05
   0.65150   0.29523205E-05
   0.65250   0.48602151E-05
   0.65350   0.87488270E-05
   0.65450   0.17824381E-04
   0.65550   0.44111013E-04
   0.65650   0.24450262E-03
   0.65750   0.66616130E-02
   0.65850   0.44997782E-03
   0.65950   0.14907123E-03
   0.66050   0.88014865E-04
   0.66150   0.66832959E-04
   0.66250   0.57830512E-04
   0.66350   0.52715193E-04
   0.66450   0.69128924E-04
   0.66550   0.17824030E-03
   0.66650   0.41620454E-03
   0.66750   0.92104811E-03
   0.66850   0.47426985E-03
   0.66950   0.19821209E-03
   0.67050   0.18062883E-03
   0.67150   0.21351840E-03
   0.67250   0.19857913E-03
   0.67350   0.13479441E-03
   0.67450   0.89725101E-04
   0.67550   0.53547392E-04
   0.67650   0.32542488E-04
   0.67750   0.28069135E-04
   0.67850   0.33588549E-04
   0.67950   0.47813071E-04
   0.68050   0.68450434E-04
   0.68150   0.91117014E-04
   0.68250   0.10923406E-03
   0.68350   0.11588674E-03
   0.68450   0.11135253E-03
   0.68550   0.10128471E-03
   0.68650   0.88183195E-04
   0.68750   0.70103772E-04
   0.68850   0.53315827E-04
   0.68950   0.40916439E-04
   0.69050   0.31818839E-04
   0.69150   0.25915193E-04
   0.69250   0.23024098E-04
   0.69350   0.22626253E-04
   0.69450   0.24067487E-04
   0.69550   0.26584386E-04
   0.69650   0.29253242E-04
   0.69750   0.31135070E-04
   0.69850   0.31618056E-04
   0.69950   0.30618728E-04
   0.70050   0.28439548E-04
   0.70150   0.25494226E-04
   0.70250   0.22152170E-04
   0.70350   0.18708874E-04
   0.70450   0.15353127E-04
   0.70550   0.12199635E-04
   0.70650   0.98320243E-05
   0.70750   0.83039486E-05
   0.70850   0.72636922E-05
   0.70950   0.64996002E-05
   0.71050   0.58893593E-05
   0.71150   0.53614708E-05
   0.71250   0.48794045E-05
   0.71350   0.44309518E-05
   0.71450   0.40185241E-05
   0.71550   0.36508254E-05
   0.71650   0.33368599E-05
   0.71750   0.30823937E-05
   0.71850   0.28883655E-05
   0.71950   0.27506417E-05
   0.72050   0.26606988E-05
   0.72150   0.26069642E-05
   0.72250   0.25765423E-05
   0.72350   0.25569959E-05
   0.72450   0.25378331E-05
   0.72550   0.25114723E-05
   0.72650   0.24736296E-05
   0.72750   0.24232461E-05
   0.72850   0.23621201E-05
   0.72950   0.22944448E-05
   0.73050   0.22266217E-05
   0.73150   0.21691530E-05
   0.73250   0.21470703E-05
   0.73350   0.21797900E-05
   0.73450   0.22489189E-05
   0.73550   0.23519090E-05
   0.73650   0.24954138E-05
   0.73750   0.26889988E-05
   0.73850   0.29453568E-05
   0.73950   0.32822375E-05
   0.74050   0.37260745E-05
   0.74150   0.43185787E-05
   0.74250   0.51291927E-05
   0.74350   0.62800150E-05
   0.74450   0.79993852E-05
   0.74550   0.10747962E-04
   0.74650   0.15551796E-04
   0.74750   0.25029503E-04
   0.74850   0.47330472E-04
   0.74950   0.11701607E-03
   0.75050   0.46351069E-03
   0.75150   0.92664675E-03
   0.75250   0.25520031E-03
   0.75350   0.10644849E-03
   0.75450   0.60018108E-04
   0.75550   0.72941039E-04
   0.75650   0.10019538E-03
   0.75750   0.91661132E-04
   0.75850   0.96356031E-04
   0.75950   0.11784369E-03
   0.76050   0.17013145E-03
   0.76150   0.30393671E-03
   0.76250   0.71705639E-03
   0.76350   0.21360824E-02
   0.76450   0.35870539E-02
   0.76550   0.20100742E-02
   0.76650   0.14470895E-02
   0.76750   0.13133438E-02
   0.76850   0.93964959E-03
   0.76950   0.60130685E-03
   0.77050   0.43892403E-03
   0.77150   0.39087047E-03
   0.77250   0.40168679E-03
   0.77350   0.37248127E-03
   0.77450   0.23821380E-03
   0.77550   0.15330894E-03
   0.77650   0.13447019E-03
   0.77750   0.13124733E-03
   0.77850   0.12325699E-03
   0.77950   0.11205020E-03
   0.78050   0.10521051E-03
   0.78150   0.10844002E-03
   0.78250   0.12295581E-03
   0.78350   0.14767531E-03
   0.78450   0.17796126E-03
   0.78550   0.20588361E-03
   0.78650   0.22923744E-03
   0.78750   0.24945388E-03
   0.78850   0.26648314E-03
   0.78950   0.27607501E-03
   0.79050   0.27042223E-03
   0.79150   0.24531936E-03
   0.79250   0.20716339E-03
   0.79350   0.16754979E-03
   0.79450   0.13398918E-03
   0.79550   0.10843627E-03
   0.79650   0.89982321E-04
   0.79750   0.76820943E-04
   0.79850   0.67009474E-04
   0.79950   0.58833710E-04
   0.80050   0.51216146E-04
   0.80150   0.43951866E-04
   0.80250   0.37396130E-04
   0.80350   0.31908963E-04
   0.80450   0.27620708E-04
   0.80550   0.24512419E-04
   0.80650   0.22524413E-04
   0.80750   0.21574191E-04
   0.80850   0.21524627E-04
   0.80950   0.22174705E-04
   0.81050   0.23299472E-04
   0.81150   0.24705976E-04
   0.81250   0.26259389E-04
   0.81350   0.27869539E-04
   0.81450   0.29460078E-04
   0.81550   0.30943502E-04
   0.81650   0.32212083E-04
   0.81750   0.33145829E-04
   0.81850   0.33634322E-04
   0.81950   0.33605302E-04
   0.82050   0.33048545E-04
   0.82150   0.32025724E-04
   0.82250   0.30671148E-04
   0.82350   0.29228246E-04
   0.82450   0.28345936E-04
   0.82550   0.31310752E-04
   0.82650   0.66407592E-04
   0.82750   0.11732724E-03
   0.82850   0.64036642E-04
   0.82950   0.47754915E-04
   0.83050   0.41898129E-04
   0.83150   0.39516093E-04
   0.83250   0.38741156E-04
   0.83350   0.38921808E-04
   0.83450   0.39814051E-04
   0.83550   0.41379160E-04
   0.83650   0.43772972E-04
   0.83750   0.47491161E-04
   0.83850   0.53821026E-04
   0.83950   0.65822620E-04
   0.84050   0.87300665E-04
   0.84150   0.10794912E-03
   0.84250   0.11205141E-03
   0.84350   0.11264292E-03
   0.84450   0.12916268E-03
   0.84550   0.20629485E-03
   0.84650   0.44510729E-03
   0.84750   0.60069293E-03
   0.84850   0.40360977E-03
   0.84950   0.25853651E-03
   0.85050   0.18533113E-03
   0.85150   0.14854068E-03
   0.85250   0.13426197E-03
   0.85350   0.14392647E-03
   0.85450   0.19854262E-03
   0.85550   0.32900006E-03
   0.85650   0.34209533E-03
   0.85750   0.24210202E-03
   0.85850   0.28963361E-03
   0.85950   0.46010027E-03
   0.86050   0.58515259E-03
   0.86150   0.60641870E-03
   0.86250   0.53890399E-03
   0.86350   0.47457422E-03
   0.86450   0.45572987E-03
   0.86550   0.48452662E-03
   0.86650   0.55030279E-03
   0.86750   0.61659527E-03
   0.86850   0.64077077E-03
   0.86950   0.64342254E-03
   0.87050   0.66998828E-03
   0.87150   0.74637070E-03
   0.87250   0.89424249E-03
   0.87350   0.11183072E-02
   0.87450   0.12783421E-02
   0.87550   0.11530903E-02
   0.87650   0.91076485E-03
   0.87750   0.73144789E-03
   0.87850   0.62363298E-03
   0.87950   0.58213866E-03
   0.88050   0.61606057E-03
   0.88150   0.71413215E-03
   0.88250   0.83673216E-03
   0.88350   0.93527604E-03
   0.88450   0.97514159E-03
   0.88550   0.95261133E-03
   0.88650   0.88806782E-03
   0.88750   0.80374844E-03
   0.88850   0.71222906E-03
   0.88950   0.61914074E-03
   0.89050   0.52966288E-03
   0.89150   0.45334053E-03
   0.89250   0.40976872E-03
   0.89350   0.45718852E-03
   0.89450   0.88814058E-03
   0.89550   0.19490689E-02
   0.89650   0.94468368E-03
   0.89750   0.55177556E-03
   0.89850   0.45077395E-03
   0.89950   0.45075914E-03
   0.90050   0.51591470E-03
   0.90150   0.63140126E-03
   0.90250   0.76833036E-03
   0.90350   0.91124087E-03
   0.90450   0.10626400E-02
   0.90550   0.12383743E-02
   0.90650   0.14638044E-02
   0.90750   0.17851907E-02
   0.90850   0.22764937E-02
   0.90950   0.29140643E-02
   0.91050   0.29841894E-02
   0.91150   0.20534738E-02
   0.91250   0.13205966E-02
   0.91350   0.99597184E-03
   0.91450   0.86064311E-03
   0.91550   0.79340691E-03
   0.91650   0.74174098E-03
   0.91750   0.69487613E-03
   0.91850   0.67868922E-03
   0.91950   0.73921192E-03
   0.92050   0.89125038E-03
   0.92150   0.10210905E-02
   0.92250   0.10516176E-02
   0.92350   0.10421184E-02
   0.92450   0.10326332E-02
   0.92550   0.10354781E-02
   0.92650   0.10555994E-02
   0.92750   0.10960683E-02
   0.92850   0.11600552E-02
   0.92950   0.12529881E-02
   0.93050   0.13829848E-02
   0.93150   0.15575506E-02
   0.93250   0.17866535E-02
   0.93350   0.21088622E-02
   0.93450   0.24974020E-02
   0.93550   0.27666374E-02
   0.93650   0.28663874E-02
   0.93750   0.28914255E-02
   0.93850   0.29554272E-02
   0.93950   0.31137094E-02
   0.94050   0.33639350E-02
   0.94150   0.36697462E-02
   0.94250   0.39972351E-02
   0.94350   0.43432536E-02
   0.94450   0.47080033E-02
   0.94550   0.50472599E-02
   0.94650   0.53215008E-02
   0.94750   0.55370871E-02
   0.94850   0.57446584E-02
   0.94950   0.60144560E-02
   0.95050   0.63963011E-02
   0.95150   0.68069939E-02
   0.95250   0.66020200E-02
   0.95350   0.66825193E-02
   0.95450   0.72352411E-02
   0.95550   0.78774355E-02
   0.95650   0.85973488E-02
   0.95750   0.93771480E-02
   0.95850   0.10204405E-01
   0.95950   0.11072684E-01
   0.96050   0.11981202E-01
   0.96150   0.12946982E-01
   0.96250   0.14014512E-01
   0.96350   0.15232132E-01
   0.96450   0.16605837E-01
   0.96550   0.18120328E-01
   0.96650   0.19797783E-01
   0.96750   0.21703454E-01
   0.96850   0.23921937E-01
   0.96950   0.26536407E-01
   0.97050   0.29609160E-01
   0.97150   0.33160474E-01
   0.97250   0.37155382E-01
   0.97350   0.41515686E-01
   0.97450   0.46160772E-01
   0.97550   0.51033732E-01
   0.97650   0.56064136E-01
   0.97750   0.61222799E-01
   0.97850   0.66464297E-01
   0.97950   0.71635693E-01
   0.98050   0.76453269E-01
   0.98150   0.80684170E-01
   0.98250   0.84577724E-01
   0.98350   0.88988870E-01
   0.98450   0.94613694E-01
   0.98550   0.10089247E+00
   0.98650   0.10672235E+00
   0.98750   0.11235895E+00
   0.98850   0.12023678E+00
   0.98950   0.13365392E+00
   0.99050   0.14950551E+00
   0.99150   0.16581045E+00
   0.99250   0.18225408E+00
   0.99350   0.19786531E+00
   0.99450   0.21066873E+00
   0.99550   0.22145829E+00
   0.99650   0.23261355E+00
   0.99750   0.24529454E+00
   0.99850   0.25956410E+00
   0.99950   0.27604291E+00
