# Transmission, k-averaged
# Date: 2021-05-13
#   E [eV]           T [G0]
   0.00050   0.24548253E+00
   0.00150   0.17602913E+00
   0.00250   0.19939519E-01
   0.00350   0.98961018E-01
   0.00450   0.11000530E+00
   0.00550   0.72905190E-01
   0.00650   0.46517078E-01
   0.00750   0.30278187E-01
   0.00850   0.20266103E-01
   0.00950   0.13844019E-01
   0.01050   0.10368256E-01
   0.01150   0.78424932E-02
   0.01250   0.63974611E-02
   0.01350   0.53335456E-02
   0.01450   0.46306471E-02
   0.01550   0.40834206E-02
   0.01650   0.37375404E-02
   0.01750   0.34189373E-02
   0.01850   0.32433576E-02
   0.01950   0.30609572E-02
   0.02050   0.29481477E-02
   0.02150   0.28378009E-02
   0.02250   0.27547292E-02
   0.02350   0.26796993E-02
   0.02450   0.26032876E-02
   0.02550   0.25595629E-02
   0.02650   0.25093185E-02
   0.02750   0.24372395E-02
   0.02850   0.24019845E-02
   0.02950   0.23998031E-02
   0.03050   0.23629235E-02
   0.03150   0.22987672E-02
   0.03250   0.22776541E-02
   0.03350   0.23046143E-02
   0.03450   0.23117883E-02
   0.03550   0.22707423E-02
   0.03650   0.22397870E-02
   0.03750   0.22705263E-02
   0.03850   0.23422388E-02
   0.03950   0.23947705E-02
   0.04050   0.24178766E-02
   0.04150   0.24782394E-02
   0.04250   0.26563667E-02
   0.04350   0.30190041E-02
   0.04450   0.37116995E-02
   0.04550   0.48971958E-02
   0.04650   0.59551555E-02
   0.04750   0.66957050E-02
   0.04850   0.72585745E-02
   0.04950   0.76944013E-02
   0.05050   0.80064107E-02
   0.05150   0.82053021E-02
   0.05250   0.83259800E-02
   0.05350   0.84120203E-02
   0.05450   0.84934412E-02
   0.05550   0.85768830E-02
   0.05650   0.86506829E-02
   0.05750   0.86983712E-02
   0.05850   0.87117478E-02
   0.05950   0.86961417E-02
   0.06050   0.86661447E-02
   0.06150   0.86365864E-02
   0.06250   0.86152274E-02
   0.06350   0.86006345E-02
   0.06450   0.85849985E-02
   0.06550   0.85595427E-02
   0.06650   0.85195173E-02
   0.06750   0.84663443E-02
   0.06850   0.84062554E-02
   0.06950   0.83467346E-02
   0.07050   0.82929600E-02
   0.07150   0.82459180E-02
   0.07250   0.82026636E-02
   0.07350   0.81582377E-02
   0.07450   0.81082042E-02
   0.07550   0.80506383E-02
   0.07650   0.79867654E-02
   0.07750   0.79201199E-02
   0.07850   0.78548174E-02
   0.07950   0.77937986E-02
   0.08050   0.77377795E-02
   0.08150   0.76851947E-02
   0.08250   0.76330239E-02
   0.08350   0.75781075E-02
   0.08450   0.75183962E-02
   0.08550   0.74536698E-02
   0.08650   0.73854686E-02
   0.08750   0.73163500E-02
   0.08850   0.72488366E-02
   0.08950   0.71846070E-02
   0.09050   0.71248482E-02
   0.09150   0.70754574E-02
   0.09250   0.70583196E-02
   0.09350   0.70607560E-02
   0.09450   0.70557240E-02
   0.09550   0.70419125E-02
   0.09650   0.70226244E-02
   0.09750   0.70007839E-02
   0.09850   0.69782622E-02
   0.09950   0.69558327E-02
   0.10050   0.69333846E-02
   0.10150   0.69102864E-02
   0.10250   0.68857931E-02
   0.10350   0.68593938E-02
   0.10450   0.68310113E-02
   0.10550   0.68010311E-02
   0.10650   0.67701759E-02
   0.10750   0.67392909E-02
   0.10850   0.67091156E-02
   0.10950   0.66801156E-02
   0.11050   0.66524055E-02
   0.11150   0.66257790E-02
   0.11250   0.65998188E-02
   0.11350   0.65740473E-02
   0.11450   0.65480773E-02
   0.11550   0.65217162E-02
   0.11650   0.64950092E-02
   0.11750   0.64682080E-02
   0.11850   0.64416905E-02
   0.11950   0.64158556E-02
   0.12050   0.63910210E-02
   0.12150   0.63673528E-02
   0.12250   0.63448437E-02
   0.12350   0.63233301E-02
   0.12450   0.63025523E-02
   0.12550   0.62822294E-02
   0.12650   0.62621329E-02
   0.12750   0.62421407E-02
   0.12850   0.62222611E-02
   0.12950   0.62026223E-02
   0.13050   0.61834324E-02
   0.13150   0.61649270E-02
   0.13250   0.61473106E-02
   0.13350   0.61307126E-02
   0.13450   0.61151632E-02
   0.13550   0.61005964E-02
   0.13650   0.60868687E-02
   0.13750   0.60738027E-02
   0.13850   0.60612271E-02
   0.13950   0.60490184E-02
   0.14050   0.60371263E-02
   0.14150   0.60255812E-02
   0.14250   0.60144849E-02
   0.14350   0.60039833E-02
   0.14450   0.59942342E-02
   0.14550   0.59853732E-02
   0.14650   0.59774839E-02
   0.14750   0.59705870E-02
   0.14850   0.59646377E-02
   0.14950   0.59595401E-02
   0.15050   0.59551722E-02
   0.15150   0.59514139E-02
   0.15250   0.59481743E-02
   0.15350   0.59454120E-02
   0.15450   0.59431433E-02
   0.15550   0.59414394E-02
   0.15650   0.59404117E-02
   0.15750   0.59401891E-02
   0.15850   0.59408932E-02
   0.15950   0.59426147E-02
   0.16050   0.59454003E-02
   0.16150   0.59492439E-02
   0.16250   0.59540933E-02
   0.16350   0.59598642E-02
   0.16450   0.59664627E-02
   0.16550   0.59738071E-02
   0.16650   0.59818518E-02
   0.16750   0.59906011E-02
   0.16850   0.60001183E-02
   0.16950   0.60105212E-02
   0.17050   0.60219774E-02
   0.17150   0.60346946E-02
   0.17250   0.60489350E-02
   0.17350   0.60650990E-02
   0.17450   0.60840803E-02
   0.17550   0.61082016E-02
   0.17650   0.61370870E-02
   0.17750   0.61653256E-02
   0.17850   0.61925971E-02
   0.17950   0.62196949E-02
   0.18050   0.62471400E-02
   0.18150   0.62752771E-02
   0.18250   0.63043581E-02
   0.18350   0.63345865E-02
   0.18450   0.63661342E-02
   0.18550   0.63991528E-02
   0.18650   0.64337752E-02
   0.18750   0.64701205E-02
   0.18850   0.65082978E-02
   0.18950   0.65484066E-02
   0.19050   0.65905438E-02
   0.19150   0.66348086E-02
   0.19250   0.66813063E-02
   0.19350   0.67301546E-02
   0.19450   0.67814896E-02
   0.19550   0.68354700E-02
   0.19650   0.68922807E-02
   0.19750   0.69521358E-02
   0.19850   0.70152823E-02
   0.19950   0.70819990E-02
   0.20050   0.71526021E-02
   0.20150   0.72274441E-02
   0.20250   0.73069204E-02
   0.20350   0.73914742E-02
   0.20450   0.74816062E-02
   0.20550   0.75778863E-02
   0.20650   0.76809754E-02
   0.20750   0.77916458E-02
   0.20850   0.79108151E-02
   0.20950   0.80395844E-02
   0.21050   0.81792753E-02
   0.21150   0.83314665E-02
   0.21250   0.84979581E-02
   0.21350   0.86805029E-02
   0.21450   0.88796066E-02
   0.21550   0.90891980E-02
   0.21650   0.92693418E-02
   0.21750   0.92179459E-02
   0.21850   0.87194759E-02
   0.21950   0.81500597E-02
   0.22050   0.76623801E-02
   0.22150   0.72496636E-02
   0.22250   0.68943826E-02
   0.22350   0.65833055E-02
   0.22450   0.63071069E-02
   0.22550   0.60591088E-02
   0.22650   0.58343969E-02
   0.22750   0.56292531E-02
   0.22850   0.54407963E-02
   0.22950   0.52667418E-02
   0.23050   0.51052435E-02
   0.23150   0.49547809E-02
   0.23250   0.48140800E-02
   0.23350   0.46821027E-02
   0.23450   0.45583779E-02
   0.23550   0.44433610E-02
   0.23650   0.43357313E-02
   0.23750   0.42340830E-02
   0.23850   0.41377679E-02
   0.23950   0.40463363E-02
   0.24050   0.39594132E-02
   0.24150   0.38766717E-02
   0.24250   0.37978203E-02
   0.24350   0.37225999E-02
   0.24450   0.36507766E-02
   0.24550   0.35821395E-02
   0.24650   0.35164959E-02
   0.24750   0.34536694E-02
   0.24850   0.33934978E-02
   0.24950   0.33358303E-02
   0.25050   0.32805277E-02
   0.25150   0.32274597E-02
   0.25250   0.31765059E-02
   0.25350   0.31275542E-02
   0.25450   0.30805005E-02
   0.25550   0.30352485E-02
   0.25650   0.29917094E-02
   0.25750   0.29498015E-02
   0.25850   0.29094492E-02
   0.25950   0.28705832E-02
   0.26050   0.28331394E-02
   0.26150   0.27970586E-02
   0.26250   0.27622858E-02
   0.26350   0.27287693E-02
   0.26450   0.26964610E-02
   0.26550   0.26653153E-02
   0.26650   0.26352894E-02
   0.26750   0.26063418E-02
   0.26850   0.25784336E-02
   0.26950   0.25515279E-02
   0.27050   0.25255887E-02
   0.27150   0.25005830E-02
   0.27250   0.24764785E-02
   0.27350   0.24532455E-02
   0.27450   0.24308558E-02
   0.27550   0.24092831E-02
   0.27650   0.23885034E-02
   0.27750   0.23684939E-02
   0.27850   0.23492340E-02
   0.27950   0.23307041E-02
   0.28050   0.23128865E-02
   0.28150   0.22957649E-02
   0.28250   0.22793231E-02
   0.28350   0.22635472E-02
   0.28450   0.22484227E-02
   0.28550   0.22339369E-02
   0.28650   0.22200770E-02
   0.28750   0.22068303E-02
   0.28850   0.21941855E-02
   0.28950   0.21821316E-02
   0.29050   0.21706577E-02
   0.29150   0.21597552E-02
   0.29250   0.21494152E-02
   0.29350   0.21396317E-02
   0.29450   0.21304002E-02
   0.29550   0.21217202E-02
   0.29650   0.21135991E-02
   0.29750   0.21060654E-02
   0.29850   0.20992176E-02
   0.29950   0.20931645E-02
   0.30050   0.20876206E-02
   0.30150   0.20824687E-02
   0.30250   0.20777483E-02
   0.30350   0.20734898E-02
   0.30450   0.20697122E-02
   0.30550   0.20664269E-02
   0.30650   0.20636430E-02
   0.30750   0.20613680E-02
   0.30850   0.20596085E-02
   0.30950   0.20583712E-02
   0.31050   0.20576627E-02
   0.31150   0.20574904E-02
   0.31250   0.20578620E-02
   0.31350   0.20587863E-02
   0.31450   0.20602723E-02
   0.31550   0.20623303E-02
   0.31650   0.20649715E-02
   0.31750   0.20682083E-02
   0.31850   0.20720535E-02
   0.31950   0.20765222E-02
   0.32050   0.20816301E-02
   0.32150   0.20873942E-02
   0.32250   0.20938336E-02
   0.32350   0.21009690E-02
   0.32450   0.21088223E-02
   0.32550   0.21174182E-02
   0.32650   0.21267831E-02
   0.32750   0.21369460E-02
   0.32850   0.21479386E-02
   0.32950   0.21597955E-02
   0.33050   0.21725546E-02
   0.33150   0.21862569E-02
   0.33250   0.22009483E-02
   0.33350   0.22166786E-02
   0.33450   0.22335025E-02
   0.33550   0.22514805E-02
   0.33650   0.22706792E-02
   0.33750   0.22911727E-02
   0.33850   0.23130432E-02
   0.33950   0.23363819E-02
   0.34050   0.23612906E-02
   0.34150   0.23878838E-02
   0.34250   0.24162901E-02
   0.34350   0.24466550E-02
   0.34450   0.24791434E-02
   0.34550   0.25139442E-02
   0.34650   0.25512739E-02
   0.34750   0.25913834E-02
   0.34850   0.26345649E-02
   0.34950   0.26811615E-02
   0.35050   0.27315805E-02
   0.35150   0.27863099E-02
   0.35250   0.28459418E-02
   0.35350   0.29112038E-02
   0.35450   0.29830034E-02
   0.35550   0.30624922E-02
   0.35650   0.31511567E-02
   0.35750   0.32509482E-02
   0.35850   0.33644498E-02
   0.35950   0.34949791E-02
   0.36050   0.36458867E-02
   0.36150   0.38134630E-02
   0.36250   0.39351643E-02
   0.36350   0.38600964E-02
   0.36450   0.36912360E-02
   0.36550   0.35274345E-02
   0.36650   0.33817079E-02
   0.36750   0.32526397E-02
   0.36850   0.31374404E-02
   0.36950   0.30336971E-02
   0.37050   0.29395130E-02
   0.37150   0.28534122E-02
   0.37250   0.27742356E-02
   0.37350   0.27010601E-02
   0.37450   0.26331388E-02
   0.37550   0.25698594E-02
   0.37650   0.25107125E-02
   0.37750   0.24552697E-02
   0.37850   0.24031659E-02
   0.37950   0.23540871E-02
   0.38050   0.23077594E-02
   0.38150   0.22639551E-02
   0.38250   0.22225585E-02
   0.38350   0.21834329E-02
   0.38450   0.21463369E-02
   0.38550   0.21111008E-02
   0.38650   0.20775939E-02
   0.38750   0.20457022E-02
   0.38850   0.20153245E-02
   0.38950   0.19863695E-02
   0.39050   0.19587546E-02
   0.39150   0.19324047E-02
   0.39250   0.19072510E-02
   0.39350   0.18832308E-02
   0.39450   0.18602861E-02
   0.39550   0.18383644E-02
   0.39650   0.18174165E-02
   0.39750   0.17973975E-02
   0.39850   0.17782657E-02
   0.39950   0.17599829E-02
   0.40050   0.17425139E-02
   0.40150   0.17258259E-02
   0.40250   0.17098892E-02
   0.40350   0.16946760E-02
   0.40450   0.16801602E-02
   0.40550   0.16663177E-02
   0.40650   0.16531259E-02
   0.40750   0.16405635E-02
   0.40850   0.16286112E-02
   0.40950   0.16172511E-02
   0.41050   0.16064671E-02
   0.41150   0.15962450E-02
   0.41250   0.15865742E-02
   0.41350   0.15774536E-02
   0.41450   0.15688981E-02
   0.41550   0.15608682E-02
   0.41650   0.15533142E-02
   0.41750   0.15462306E-02
   0.41850   0.15396154E-02
   0.41950   0.15334646E-02
   0.42050   0.15277733E-02
   0.42150   0.15225364E-02
   0.42250   0.15177494E-02
   0.42350   0.15134077E-02
   0.42450   0.15095077E-02
   0.42550   0.15060459E-02
   0.42650   0.15030197E-02
   0.42750   0.15004269E-02
   0.42850   0.14982658E-02
   0.42950   0.14965351E-02
   0.43050   0.14952346E-02
   0.43150   0.14943642E-02
   0.43250   0.14939251E-02
   0.43350   0.14939185E-02
   0.43450   0.14943465E-02
   0.43550   0.14952120E-02
   0.43650   0.14965179E-02
   0.43750   0.14982685E-02
   0.43850   0.15004682E-02
   0.43950   0.15031227E-02
   0.44050   0.15062380E-02
   0.44150   0.15098208E-02
   0.44250   0.15138790E-02
   0.44350   0.15184210E-02
   0.44450   0.15234561E-02
   0.44550   0.15289946E-02
   0.44650   0.15350479E-02
   0.44750   0.15416280E-02
   0.44850   0.15487485E-02
   0.44950   0.15564236E-02
   0.45050   0.15646692E-02
   0.45150   0.15735021E-02
   0.45250   0.15829407E-02
   0.45350   0.15930049E-02
   0.45450   0.16037162E-02
   0.45550   0.16150975E-02
   0.45650   0.16271742E-02
   0.45750   0.16399731E-02
   0.45850   0.16535237E-02
   0.45950   0.16678572E-02
   0.46050   0.16830082E-02
   0.46150   0.16990135E-02
   0.46250   0.17159135E-02
   0.46350   0.17337517E-02
   0.46450   0.17525755E-02
   0.46550   0.17724364E-02
   0.46650   0.17933907E-02
   0.46750   0.18154997E-02
   0.46850   0.18388305E-02
   0.46950   0.18634567E-02
   0.47050   0.18894590E-02
   0.47150   0.19169264E-02
   0.47250   0.19459568E-02
   0.47350   0.19766593E-02
   0.47450   0.20091545E-02
   0.47550   0.20435767E-02
   0.47650   0.20800761E-02
   0.47750   0.21188220E-02
   0.47850   0.21600043E-02
   0.47950   0.22038389E-02
   0.48050   0.22505710E-02
   0.48150   0.23004825E-02
   0.48250   0.23538971E-02
   0.48350   0.24111911E-02
   0.48450   0.24728046E-02
   0.48550   0.25392575E-02
   0.48650   0.26111682E-02
   0.48750   0.26892829E-02
   0.48850   0.27745110E-02
   0.48950   0.28679783E-02
   0.49050   0.29710999E-02
   0.49150   0.30856861E-02
   0.49250   0.32140973E-02
   0.49350   0.33594626E-02
   0.49450   0.35259523E-02
   0.49550   0.37188560E-02
   0.49650   0.39425604E-02
   0.49750   0.41813133E-02
   0.49850   0.42905137E-02
   0.49950   0.41382858E-02
   0.50050   0.39260709E-02
   0.50150   0.37315835E-02
   0.50250   0.35610939E-02
   0.50350   0.34113375E-02
   0.50450   0.32785928E-02
   0.50550   0.31598273E-02
   0.50650   0.30526901E-02
   0.50750   0.29553594E-02
   0.50850   0.28664067E-02
   0.50950   0.27846941E-02
   0.51050   0.27093026E-02
   0.51150   0.26394797E-02
   0.51250   0.25746012E-02
   0.51350   0.25141437E-02
   0.51450   0.24576641E-02
   0.51550   0.24047839E-02
   0.51650   0.23551772E-02
   0.51750   0.23085615E-02
   0.51850   0.22646904E-02
   0.51950   0.22233487E-02
   0.52050   0.21843510E-02
   0.52150   0.21475367E-02
   0.52250   0.21127416E-02
   0.52350   0.20798217E-02
   0.52450   0.20486568E-02
   0.52550   0.20191388E-02
   0.52650   0.19911702E-02
   0.52750   0.19646627E-02
   0.52850   0.19395357E-02
   0.52950   0.19157161E-02
   0.53050   0.18931372E-02
   0.53150   0.18717387E-02
   0.53250   0.18514679E-02
   0.53350   0.18322826E-02
   0.53450   0.18141316E-02
   0.53550   0.17969614E-02
   0.53650   0.17807327E-02
   0.53750   0.17654105E-02
   0.53850   0.17509628E-02
   0.53950   0.17373597E-02
   0.54050   0.17245736E-02
   0.54150   0.17125792E-02
   0.54250   0.17013534E-02
   0.54350   0.16908752E-02
   0.54450   0.16811251E-02
   0.54550   0.16720858E-02
   0.54650   0.16637414E-02
   0.54750   0.16560776E-02
   0.54850   0.16490816E-02
   0.54950   0.16427421E-02
   0.55050   0.16370494E-02
   0.55150   0.16319945E-02
   0.55250   0.16275705E-02
   0.55350   0.16237710E-02
   0.55450   0.16205914E-02
   0.55550   0.16180280E-02
   0.55650   0.16160783E-02
   0.55750   0.16147409E-02
   0.55850   0.16140159E-02
   0.55950   0.16139041E-02
   0.56050   0.16144079E-02
   0.56150   0.16155305E-02
   0.56250   0.16172765E-02
   0.56350   0.16196517E-02
   0.56450   0.16226632E-02
   0.56550   0.16263193E-02
   0.56650   0.16306295E-02
   0.56750   0.16356051E-02
   0.56850   0.16412582E-02
   0.56950   0.16476031E-02
   0.57050   0.16546551E-02
   0.57150   0.16624314E-02
   0.57250   0.16709510E-02
   0.57350   0.16802346E-02
   0.57450   0.16903050E-02
   0.57550   0.17011870E-02
   0.57650   0.17129078E-02
   0.57750   0.17254968E-02
   0.57850   0.17389862E-02
   0.57950   0.17534109E-02
   0.58050   0.17688090E-02
   0.58150   0.17852216E-02
   0.58250   0.18026937E-02
   0.58350   0.18212739E-02
   0.58450   0.18410154E-02
   0.58550   0.18619760E-02
   0.58650   0.18842183E-02
   0.58750   0.19078113E-02
   0.58850   0.19328295E-02
   0.58950   0.19593551E-02
   0.59050   0.19874773E-02
   0.59150   0.20172945E-02
   0.59250   0.20489150E-02
   0.59350   0.20824573E-02
   0.59450   0.21180524E-02
   0.59550   0.21558453E-02
   0.59650   0.21959967E-02
   0.59750   0.22386853E-02
   0.59850   0.22841101E-02
   0.59950   0.23324941E-02
   0.60050   0.23840875E-02
   0.60150   0.24391725E-02
   0.60250   0.24980684E-02
   0.60350   0.25611382E-02
   0.60450   0.26287977E-02
   0.60550   0.27015239E-02
   0.60650   0.27798701E-02
   0.60750   0.28644796E-02
   0.60850   0.29561084E-02
   0.60950   0.30556519E-02
   0.61050   0.31641801E-02
   0.61150   0.32829877E-02
   0.61250   0.34136584E-02
   0.61350   0.35581579E-02
   0.61450   0.37189664E-02
   0.61550   0.38992667E-02
   0.61650   0.41032233E-02
   0.61750   0.43363781E-02
   0.61850   0.46061105E-02
   0.61950   0.49220142E-02
   0.62050   0.52934829E-02
   0.62150   0.57022856E-02
   0.62250   0.59301225E-02
   0.62350   0.57035973E-02
   0.62450   0.53531956E-02
   0.62550   0.50323256E-02
   0.62650   0.47539501E-02
   0.62750   0.45120511E-02
   0.62850   0.42997529E-02
   0.62950   0.41115093E-02
   0.63050   0.39430652E-02
   0.63150   0.37911513E-02
   0.63250   0.36532257E-02
   0.63350   0.35272778E-02
   0.63450   0.34116940E-02
   0.63550   0.33051597E-02
   0.63650   0.32065909E-02
   0.63750   0.31150817E-02
   0.63850   0.30298685E-02
   0.63950   0.29503005E-02
   0.64050   0.28758184E-02
   0.64150   0.28059382E-02
   0.64250   0.27402372E-02
   0.64350   0.26783436E-02
   0.64450   0.26199289E-02
   0.64550   0.25647001E-02
   0.64650   0.25123954E-02
   0.64750   0.24627778E-02
   0.64850   0.24156331E-02
   0.64950   0.23707652E-02
   0.65050   0.23279940E-02
   0.65150   0.22871527E-02
   0.65250   0.22480858E-02
   0.65350   0.22106473E-02
   0.65450   0.21746985E-02
   0.65550   0.21401073E-02
   0.65650   0.21067460E-02
   0.65750   0.20744901E-02
   0.65850   0.20432170E-02
   0.65950   0.20128046E-02
   0.66050   0.19831304E-02
   0.66150   0.19540696E-02
   0.66250   0.19254936E-02
   0.66350   0.18972689E-02
   0.66450   0.18692554E-02
   0.66550   0.18413041E-02
   0.66650   0.18132556E-02
   0.66750   0.17849378E-02
   0.66850   0.17561632E-02
   0.66950   0.17267265E-02
   0.67050   0.16964014E-02
   0.67150   0.16649365E-02
   0.67250   0.16320520E-02
   0.67350   0.15974347E-02
   0.67450   0.15607330E-02
   0.67550   0.15215502E-02
   0.67650   0.14794382E-02
   0.67750   0.14338885E-02
   0.67850   0.13843217E-02
   0.67950   0.13300749E-02
   0.68050   0.12703813E-02
   0.68150   0.12043433E-02
   0.68250   0.11308837E-02
   0.68350   0.10486590E-02
   0.68450   0.95588597E-03
   0.68550   0.84998028E-03
   0.68650   0.72679343E-03
   0.68750   0.57907903E-03
   0.68850   0.39276644E-03
   0.68950   0.17225045E-03
   0.69050   0.40531991E-03
   0.69150   0.80434786E-03
   0.69250   0.65945013E-03
   0.69350   0.52203541E-03
   0.69450   0.43943120E-03
   0.69550   0.41229371E-03
   0.69650   0.44341595E-03
   0.69750   0.53812622E-03
   0.69850   0.71264559E-03
   0.69950   0.10421535E-02
   0.70050   0.17676349E-02
   0.70150   0.24582657E-02
   0.70250   0.19610571E-02
   0.70350   0.15118121E-02
   0.70450   0.12746599E-02
   0.70550   0.11538566E-02
   0.70650   0.11045977E-02
   0.70750   0.11000161E-02
   0.70850   0.11353595E-02
   0.70950   0.12136743E-02
   0.71050   0.13445101E-02
   0.71150   0.15686058E-02
   0.71250   0.22793249E-02
   0.71350   0.74563539E-02
   0.71450   0.39649298E-02
   0.71550   0.29850085E-02
   0.71650   0.31264743E-02
   0.71750   0.35532676E-02
   0.71850   0.41191722E-02
   0.71950   0.48088226E-02
   0.72050   0.60497811E-02
   0.72150   0.30178133E-01
   0.72250   0.53212784E-01
   0.72350   0.69977760E-01
   0.72450   0.24677749E+00
   0.72550   0.29349416E+00
   0.72650   0.27195108E+00
   0.72750   0.54667926E+00
   0.72850   0.22988327E+00
   0.72950   0.29793131E+00
   0.73050   0.20191902E+00
   0.73150   0.29431078E+00
   0.73250   0.38750723E+00
   0.73350   0.41791329E+00
   0.73450   0.39363337E+00
   0.73550   0.34872133E+00
   0.73650   0.30616441E+00
   0.73750   0.42257971E+00
   0.73850   0.32335091E+00
   0.73950   0.32304636E+00
   0.74050   0.33959952E+00
   0.74150   0.16223663E+00
   0.74250   0.26925099E+00
   0.74350   0.14855599E+00
   0.74450   0.41308191E-01
   0.74550   0.44010945E-01
   0.74650   0.42179979E-01
   0.74750   0.37649073E-01
   0.74850   0.32540184E-01
   0.74950   0.27744506E-01
   0.75050   0.23302216E-01
   0.75150   0.18974395E-01
   0.75250   0.14697142E-01
   0.75350   0.11046979E-01
   0.75450   0.87639000E-02
   0.75550   0.77829799E-02
   0.75650   0.74594417E-02
   0.75750   0.73012672E-02
   0.75850   0.71265311E-02
   0.75950   0.69064912E-02
   0.76050   0.66545648E-02
   0.76150   0.63878940E-02
   0.76250   0.61189672E-02
   0.76350   0.58555771E-02
   0.76450   0.56022396E-02
   0.76550   0.53614285E-02
   0.76650   0.51343921E-02
   0.76750   0.49216435E-02
   0.76850   0.47232448E-02
   0.76950   0.45389659E-02
   0.77050   0.43683811E-02
   0.77150   0.42109303E-02
   0.77250   0.40659639E-02
   0.77350   0.39327783E-02
   0.77450   0.38106451E-02
   0.77550   0.36988363E-02
   0.77650   0.35966430E-02
   0.77750   0.35033887E-02
   0.77850   0.34184391E-02
   0.77950   0.33412047E-02
   0.78050   0.32711388E-02
   0.78150   0.32077439E-02
   0.78250   0.31506731E-02
   0.78350   0.30996364E-02
   0.78450   0.30541897E-02
   0.78550   0.30139824E-02
   0.78650   0.29787293E-02
   0.78750   0.29481822E-02
   0.78850   0.29221193E-02
   0.78950   0.29003415E-02
   0.79050   0.28826639E-02
   0.79150   0.28689092E-02
   0.79250   0.28589005E-02
   0.79350   0.28524529E-02
   0.79450   0.28493647E-02
   0.79550   0.28494108E-02
   0.79650   0.28523365E-02
   0.79750   0.28578534E-02
   0.79850   0.28656390E-02
   0.79950   0.28753385E-02
   0.80050   0.28865738E-02
   0.80150   0.28989553E-02
   0.80250   0.29121025E-02
   0.80350   0.29256705E-02
   0.80450   0.29393812E-02
   0.80550   0.29530595E-02
   0.80650   0.29666685E-02
   0.80750   0.29803398E-02
   0.80850   0.29943967E-02
   0.80950   0.30093631E-02
   0.81050   0.30259597E-02
   0.81150   0.30450898E-02
   0.81250   0.30678201E-02
   0.81350   0.30953658E-02
   0.81450   0.31290872E-02
   0.81550   0.31705066E-02
   0.81650   0.32213558E-02
   0.81750   0.32836623E-02
   0.81850   0.33598894E-02
   0.81950   0.34531595E-02
   0.82050   0.35676081E-02
   0.82150   0.37089523E-02
   0.82250   0.38853830E-02
   0.82350   0.41085957E-02
   0.82450   0.43910430E-02
   0.82550   0.46974220E-02
   0.82650   0.47889543E-02
   0.82750   0.46649436E-02
   0.82850   0.45062187E-02
   0.82950   0.43573808E-02
   0.83050   0.42247381E-02
   0.83150   0.41077123E-02
   0.83250   0.40045329E-02
   0.83350   0.39134114E-02
   0.83450   0.38327796E-02
   0.83550   0.37613134E-02
   0.83650   0.36979015E-02
   0.83750   0.36416103E-02
   0.83850   0.35916481E-02
   0.83950   0.35473385E-02
   0.84050   0.35080947E-02
   0.84150   0.34733946E-02
   0.84250   0.34427587E-02
   0.84350   0.34158113E-02
   0.84450   0.33923774E-02
   0.84550   0.33721710E-02
   0.84650   0.33548360E-02
   0.84750   0.33400310E-02
   0.84850   0.33281711E-02
   0.84950   0.33198348E-02
   0.85050   0.33145556E-02
   0.85150   0.33119842E-02
   0.85250   0.33119251E-02
   0.85350   0.33142495E-02
   0.85450   0.33188637E-02
   0.85550   0.33256975E-02
   0.85650   0.33346973E-02
   0.85750   0.33458229E-02
   0.85850   0.33590440E-02
   0.85950   0.33743398E-02
   0.86050   0.33916959E-02
   0.86150   0.34111051E-02
   0.86250   0.34325654E-02
   0.86350   0.34560803E-02
   0.86450   0.34816589E-02
   0.86550   0.35093154E-02
   0.86650   0.35390696E-02
   0.86750   0.35709473E-02
   0.86850   0.36049818E-02
   0.86950   0.36412126E-02
   0.87050   0.36796879E-02
   0.87150   0.37204642E-02
   0.87250   0.37636082E-02
   0.87350   0.38091962E-02
   0.87450   0.38573167E-02
   0.87550   0.39080698E-02
   0.87650   0.39615706E-02
   0.87750   0.40179482E-02
   0.87850   0.40773484E-02
   0.87950   0.41399375E-02
   0.88050   0.42059002E-02
   0.88150   0.42754472E-02
   0.88250   0.43488150E-02
   0.88350   0.44262717E-02
   0.88450   0.45081209E-02
   0.88550   0.45947065E-02
   0.88650   0.46864208E-02
   0.88750   0.47837119E-02
   0.88850   0.48870929E-02
   0.88950   0.49971533E-02
   0.89050   0.51145740E-02
   0.89150   0.52401442E-02
   0.89250   0.53747799E-02
   0.89350   0.55195447E-02
   0.89450   0.56756614E-02
   0.89550   0.58444832E-02
   0.89650   0.60273227E-02
   0.89750   0.62247282E-02
   0.89850   0.64334339E-02
   0.89950   0.66314014E-02
   0.90050   0.67013586E-02
   0.90150   0.64397356E-02
   0.90250   0.61009992E-02
   0.90350   0.58485991E-02
   0.90450   0.56791599E-02
   0.90550   0.55786539E-02
   0.90650   0.55379639E-02
   0.90750   0.55522160E-02
   0.90850   0.56195683E-02
   0.90950   0.57404591E-02
   0.91050   0.59172111E-02
   0.91150   0.61538811E-02
   0.91250   0.64562820E-02
   0.91350   0.68321587E-02
   0.91450   0.72915256E-02
   0.91550   0.78472067E-02
   0.91650   0.85156681E-02
   0.91750   0.93183015E-02
   0.91850   0.10283438E-01
   0.91950   0.11449599E-01
   0.92050   0.12870987E-01
   0.92150   0.14627142E-01
   0.92250   0.16840819E-01
   0.92350   0.19712662E-01
   0.92450   0.23590541E-01
   0.92550   0.29109027E-01
   0.92650   0.37482139E-01
   0.92750   0.51366013E-01
   0.92850   0.78686871E-01
   0.92950   0.14497414E+00
   0.93050   0.18931109E+00
   0.93150   0.18553230E+00
   0.93250   0.25045359E+00
   0.93350   0.35435352E+00
   0.93450   0.30936655E+00
   0.93550   0.33209315E+00
   0.93650   0.40274662E+00
   0.93750   0.46678352E+00
   0.93850   0.48773003E+00
   0.93950   0.51109952E+00
   0.94050   0.55808514E+00
   0.94150   0.63989323E+00
   0.94250   0.69111300E+00
   0.94350   0.70671809E+00
   0.94450   0.75018835E+00
   0.94550   0.84628224E+00
   0.94650   0.97845137E+00
   0.94750   0.10774447E+01
   0.94850   0.10809120E+01
   0.94950   0.10248910E+01
   0.95050   0.95256472E+00
   0.95150   0.90654474E+00
   0.95250   0.90446341E+00
   0.95350   0.91703624E+00
   0.95450   0.90246892E+00
   0.95550   0.95270461E+00
   0.95650   0.98069113E+00
   0.95750   0.92944860E+00
   0.95850   0.89053386E+00
   0.95950   0.88076842E+00
   0.96050   0.88626975E+00
   0.96150   0.89359009E+00
   0.96250   0.89826727E+00
   0.96350   0.90242088E+00
   0.96450   0.90818661E+00
   0.96550   0.91215187E+00
   0.96650   0.90678829E+00
   0.96750   0.89981735E+00
   0.96850   0.90028620E+00
   0.96950   0.89931691E+00
   0.97050   0.88214976E+00
   0.97150   0.85928357E+00
   0.97250   0.85337543E+00
   0.97350   0.86672509E+00
   0.97450   0.88384432E+00
   0.97550   0.88782191E+00
   0.97650   0.86932504E+00
   0.97750   0.83065003E+00
   0.97850   0.78323579E+00
   0.97950   0.73899817E+00
   0.98050   0.70106322E+00
   0.98150   0.67119730E+00
   0.98250   0.65435892E+00
   0.98350   0.65224254E+00
   0.98450   0.66348994E+00
   0.98550   0.68510419E+00
   0.98650   0.71039861E+00
   0.98750   0.72884095E+00
   0.98850   0.73131794E+00
   0.98950   0.71956772E+00
   0.99050   0.70162159E+00
   0.99150   0.68186873E+00
   0.99250   0.65979767E+00
   0.99350   0.63254559E+00
   0.99450   0.59798193E+00
   0.99550   0.55652177E+00
   0.99650   0.51229554E+00
   0.99750   0.47152308E+00
   0.99850   0.43820518E+00
   0.99950   0.41211548E+00
