# Transmission, k-averaged
# Date: 2021-05-13
#   E [eV]           T [G0]
   0.00050   0.32100525E-01
   0.00150   0.55178929E-01
   0.00250   0.43856930E-01
   0.00350   0.42770803E-01
   0.00450   0.26324371E-01
   0.00550   0.19319259E-01
   0.00650   0.66052668E-01
   0.00750   0.14155797E-01
   0.00850   0.23679746E-01
   0.00950   0.11219570E-01
   0.01050   0.84443744E-02
   0.01150   0.27038797E-02
   0.01250   0.66624448E-03
   0.01350   0.11123556E-02
   0.01450   0.34959728E-02
   0.01550   0.75123939E-02
   0.01650   0.16330967E-01
   0.01750   0.12151962E-01
   0.01850   0.12737805E-01
   0.01950   0.37768696E-01
   0.02050   0.28127288E-01
   0.02150   0.96703721E-02
   0.02250   0.94874408E-02
   0.02350   0.31518023E-01
   0.02450   0.42704508E-01
   0.02550   0.75018262E-02
   0.02650   0.45735007E-02
   0.02750   0.64867376E-02
   0.02850   0.31714913E-01
   0.02950   0.28811930E-01
   0.03050   0.55167540E-02
   0.03150   0.33261918E-02
   0.03250   0.39022425E-02
   0.03350   0.96089253E-02
   0.03450   0.82763672E-01
   0.03550   0.14045616E-01
   0.03650   0.46849744E-02
   0.03750   0.33666948E-02
   0.03850   0.40532919E-02
   0.03950   0.87716551E-02
   0.04050   0.52052844E-01
   0.04150   0.23488788E-01
   0.04250   0.62640407E-02
   0.04350   0.37506886E-02
   0.04450   0.37064592E-02
   0.04550   0.55437288E-02
   0.04650   0.10292309E-01
   0.04750   0.12191903E-01
   0.04850   0.67254035E-02
   0.04950   0.37479310E-02
   0.05050   0.26224686E-02
   0.05150   0.22568440E-02
   0.05250   0.23051389E-02
   0.05350   0.26803161E-02
   0.05450   0.32644379E-02
   0.05550   0.35596171E-02
   0.05650   0.30945907E-02
   0.05750   0.23451294E-02
   0.05850   0.17997226E-02
   0.05950   0.15051217E-02
   0.06050   0.13956440E-02
   0.06150   0.14242983E-02
   0.06250   0.15595715E-02
   0.06350   0.17419042E-02
   0.06450   0.18417260E-02
   0.06550   0.17435928E-02
   0.06650   0.15057228E-02
   0.06750   0.12704317E-02
   0.06850   0.11097136E-02
   0.06950   0.10324714E-02
   0.07050   0.10300309E-02
   0.07150   0.10926890E-02
   0.07250   0.12045261E-02
   0.07350   0.13271548E-02
   0.07450   0.13963267E-02
   0.07550   0.13675797E-02
   0.07650   0.12661098E-02
   0.07750   0.11543031E-02
   0.07850   0.10761518E-02
   0.07950   0.10488818E-02
   0.08050   0.10768219E-02
   0.08150   0.11596673E-02
   0.08250   0.12902198E-02
   0.08350   0.14437060E-02
   0.08450   0.15705493E-02
   0.08550   0.16187362E-02
   0.08650   0.15805019E-02
   0.08750   0.14992495E-02
   0.08850   0.14279999E-02
   0.08950   0.14015762E-02
   0.09050   0.14378688E-02
   0.09150   0.15376783E-02
   0.09250   0.16390764E-02
   0.09350   0.16742013E-02
   0.09450   0.16434488E-02
   0.09550   0.15478546E-02
   0.09650   0.14117373E-02
   0.09750   0.12700269E-02
   0.09850   0.11475771E-02
   0.09950   0.10543599E-02
   0.10050   0.99030661E-03
   0.10150   0.95027918E-03
   0.10250   0.92643755E-03
   0.10350   0.90896094E-03
   0.10450   0.88695169E-03
   0.10550   0.85100351E-03
   0.10650   0.79705258E-03
   0.10750   0.72853733E-03
   0.10850   0.65433182E-03
   0.10950   0.58412465E-03
   0.11050   0.52511587E-03
   0.11150   0.48156243E-03
   0.11250   0.45605452E-03
   0.11350   0.45098798E-03
   0.11450   0.46924141E-03
   0.11550   0.51343301E-03
   0.11650   0.58408058E-03
   0.11750   0.67896675E-03
   0.11850   0.79501246E-03
   0.11950   0.92866231E-03
   0.12050   0.10718547E-02
   0.12150   0.12090323E-02
   0.12250   0.13219628E-02
   0.12350   0.13993661E-02
   0.12450   0.14412380E-02
   0.12550   0.14549710E-02
   0.12650   0.14494044E-02
   0.12750   0.14316139E-02
   0.12850   0.14064105E-02
   0.12950   0.13769139E-02
   0.13050   0.13451796E-02
   0.13150   0.13125979E-02
   0.13250   0.12801021E-02
   0.13350   0.12482855E-02
   0.13450   0.12174883E-02
   0.13550   0.11878756E-02
   0.13650   0.11595099E-02
   0.13750   0.11324086E-02
   0.13850   0.11065819E-02
   0.13950   0.10820481E-02
   0.14050   0.10588333E-02
   0.14150   0.10369597E-02
   0.14250   0.10164299E-02
   0.14350   0.99721446E-03
   0.14450   0.97924739E-03
   0.14550   0.96242735E-03
   0.14650   0.94662880E-03
   0.14750   0.93171670E-03
   0.14850   0.91756380E-03
   0.14950   0.90406602E-03
   0.15050   0.89115358E-03
   0.15150   0.87879563E-03
   0.15250   0.86699799E-03
   0.15350   0.85579435E-03
   0.15450   0.84523379E-03
   0.15550   0.83536631E-03
   0.15650   0.82622899E-03
   0.15750   0.81783568E-03
   0.15850   0.81017095E-03
   0.15950   0.80318894E-03
   0.16050   0.79681742E-03
   0.16150   0.79096569E-03
   0.16250   0.78553514E-03
   0.16350   0.78043039E-03
   0.16450   0.77556912E-03
   0.16550   0.77088817E-03
   0.16650   0.76634408E-03
   0.16750   0.76190557E-03
   0.16850   0.75753592E-03
   0.16950   0.75316039E-03
   0.17050   0.74860617E-03
   0.17150   0.74348261E-03
   0.17250   0.73689810E-03
   0.17350   0.72664430E-03
   0.17450   0.70631475E-03
   0.17550   0.65756735E-03
   0.17650   0.58069377E-03
   0.17750   0.51663409E-03
   0.17850   0.46876832E-03
   0.17950   0.43156004E-03
   0.18050   0.40150696E-03
   0.18150   0.37654603E-03
   0.18250   0.35538996E-03
   0.18350   0.33718674E-03
   0.18450   0.32134392E-03
   0.18550   0.30743261E-03
   0.18650   0.29513173E-03
   0.18750   0.28419399E-03
   0.18850   0.27442432E-03
   0.18950   0.26566588E-03
   0.19050   0.25779041E-03
   0.19150   0.25069198E-03
   0.19250   0.24428254E-03
   0.19350   0.23848885E-03
   0.19450   0.23325038E-03
   0.19550   0.22851786E-03
   0.19650   0.22425241E-03
   0.19750   0.22042486E-03
   0.19850   0.21701580E-03
   0.19950   0.21401586E-03
   0.20050   0.21142687E-03
   0.20150   0.20926417E-03
   0.20250   0.20756084E-03
   0.20350   0.20637555E-03
   0.20450   0.20580683E-03
   0.20550   0.20602003E-03
   0.20650   0.20730057E-03
   0.20750   0.21016541E-03
   0.20850   0.21561644E-03
   0.20950   0.22577567E-03
   0.21050   0.24568310E-03
   0.21150   0.28908032E-03
   0.21250   0.39686818E-03
   0.21350   0.61609247E-03
   0.21450   0.59618510E-03
   0.21550   0.38759143E-03
   0.21650   0.29372322E-03
   0.21750   0.26192810E-03
   0.21850   0.25574109E-03
   0.21950   0.25471905E-03
   0.22050   0.25447540E-03
   0.22150   0.25479746E-03
   0.22250   0.25575908E-03
   0.22350   0.25742524E-03
   0.22450   0.25985265E-03
   0.22550   0.26310474E-03
   0.22650   0.26726341E-03
   0.22750   0.27244008E-03
   0.22850   0.27878932E-03
   0.22950   0.28652800E-03
   0.23050   0.29596343E-03
   0.23150   0.30752886E-03
   0.23250   0.32177669E-03
   0.23350   0.33885264E-03
   0.23450   0.35357932E-03
   0.23550   0.34971634E-03
   0.23650   0.33487059E-03
   0.23750   0.31951867E-03
   0.23850   0.30550841E-03
   0.23950   0.29293279E-03
   0.24050   0.28162290E-03
   0.24150   0.27139392E-03
   0.24250   0.26208701E-03
   0.24350   0.25357210E-03
   0.24450   0.24574355E-03
   0.24550   0.23851526E-03
   0.24650   0.23181648E-03
   0.24750   0.22558869E-03
   0.24850   0.21978306E-03
   0.24950   0.21435849E-03
   0.25050   0.20928009E-03
   0.25150   0.20451802E-03
   0.25250   0.20004647E-03
   0.25350   0.19584293E-03
   0.25450   0.19188748E-03
   0.25550   0.18816243E-03
   0.25650   0.18465184E-03
   0.25750   0.18134130E-03
   0.25850   0.17821761E-03
   0.25950   0.17526874E-03
   0.26050   0.17248363E-03
   0.26150   0.16985217E-03
   0.26250   0.16736507E-03
   0.26350   0.16501390E-03
   0.26450   0.16279101E-03
   0.26550   0.16068948E-03
   0.26650   0.15870314E-03
   0.26750   0.15682647E-03
   0.26850   0.15505459E-03
   0.26950   0.15338317E-03
   0.27050   0.15180840E-03
   0.27150   0.15032692E-03
   0.27250   0.14893571E-03
   0.27350   0.14763209E-03
   0.27450   0.14641361E-03
   0.27550   0.14527806E-03
   0.27650   0.14422335E-03
   0.27750   0.14324757E-03
   0.27850   0.14234890E-03
   0.27950   0.14152564E-03
   0.28050   0.14077619E-03
   0.28150   0.14009907E-03
   0.28250   0.13949293E-03
   0.28350   0.13895650E-03
   0.28450   0.13848861E-03
   0.28550   0.13808819E-03
   0.28650   0.13775403E-03
   0.28750   0.13748479E-03
   0.28850   0.13727858E-03
   0.28950   0.13713252E-03
   0.29050   0.13704180E-03
   0.29150   0.13699805E-03
   0.29250   0.13698613E-03
   0.29350   0.13697767E-03
   0.29450   0.13691642E-03
   0.29550   0.13668172E-03
   0.29650   0.13598177E-03
   0.29750   0.13397685E-03
   0.29850   0.12786959E-03
   0.29950   0.11404273E-03
   0.30050   0.99966615E-04
   0.30150   0.89272675E-04
   0.30250   0.81031656E-04
   0.30350   0.74433548E-04
   0.30450   0.68989917E-04
   0.30550   0.64397311E-04
   0.30650   0.60456343E-04
   0.30750   0.57029385E-04
   0.30850   0.54017521E-04
   0.30950   0.51347302E-04
   0.31050   0.48962716E-04
   0.31150   0.46820089E-04
   0.31250   0.44884717E-04
   0.31350   0.43128584E-04
   0.31450   0.41528772E-04
   0.31550   0.40066301E-04
   0.31650   0.38725295E-04
   0.31750   0.37492355E-04
   0.31850   0.36356101E-04
   0.31950   0.35306799E-04
   0.32050   0.34336103E-04
   0.32150   0.33436841E-04
   0.32250   0.32602886E-04
   0.32350   0.31829059E-04
   0.32450   0.31111089E-04
   0.32550   0.30445677E-04
   0.32650   0.29830631E-04
   0.32750   0.29265180E-04
   0.32850   0.28750563E-04
   0.32950   0.28291104E-04
   0.33050   0.27896214E-04
   0.33150   0.27584214E-04
   0.33250   0.27389911E-04
   0.33350   0.27380493E-04
   0.33450   0.27690952E-04
   0.33550   0.28608871E-04
   0.33650   0.30792136E-04
   0.33750   0.35845653E-04
   0.33850   0.47526770E-04
   0.33950   0.69273105E-04
   0.34050   0.80862832E-04
   0.34150   0.70155962E-04
   0.34250   0.56922017E-04
   0.34350   0.47980851E-04
   0.34450   0.42509535E-04
   0.34550   0.39076858E-04
   0.34650   0.36826579E-04
   0.34750   0.35295907E-04
   0.34850   0.34229295E-04
   0.34950   0.33479089E-04
   0.35050   0.32956003E-04
   0.35150   0.32603821E-04
   0.35250   0.32385968E-04
   0.35350   0.32278069E-04
   0.35450   0.32263619E-04
   0.35550   0.32331409E-04
   0.35650   0.32473945E-04
   0.35750   0.32686465E-04
   0.35850   0.32966374E-04
   0.35950   0.33313081E-04
   0.36050   0.33728626E-04
   0.36150   0.34221266E-04
   0.36250   0.34821434E-04
   0.36350   0.35562167E-04
   0.36450   0.36392601E-04
   0.36550   0.37296955E-04
   0.36650   0.38286187E-04
   0.36750   0.39374128E-04
   0.36850   0.40575811E-04
   0.36950   0.41908232E-04
   0.37050   0.43391392E-04
   0.37150   0.45049484E-04
   0.37250   0.46912486E-04
   0.37350   0.49018345E-04
   0.37450   0.51416209E-04
   0.37550   0.54171331E-04
   0.37650   0.57372803E-04
   0.37750   0.61146187E-04
   0.37850   0.65674016E-04
   0.37950   0.71224160E-04
   0.38050   0.78131707E-04
   0.38150   0.86065244E-04
   0.38250   0.90190515E-04
   0.38350   0.88360852E-04
   0.38450   0.85047875E-04
   0.38550   0.81708662E-04
   0.38650   0.78599376E-04
   0.38750   0.75745666E-04
   0.38850   0.73125935E-04
   0.38950   0.70710899E-04
   0.39050   0.68472989E-04
   0.39150   0.66388246E-04
   0.39250   0.64436339E-04
   0.39350   0.62600062E-04
   0.39450   0.60864724E-04
   0.39550   0.59217724E-04
   0.39650   0.57648118E-04
   0.39750   0.56146280E-04
   0.39850   0.54703662E-04
   0.39950   0.53312539E-04
   0.40050   0.51965835E-04
   0.40150   0.50656930E-04
   0.40250   0.49379461E-04
   0.40350   0.48127124E-04
   0.40450   0.46893390E-04
   0.40550   0.45671120E-04
   0.40650   0.44451928E-04
   0.40750   0.43225158E-04
   0.40850   0.41975927E-04
   0.40950   0.40681291E-04
   0.41050   0.39301809E-04
   0.41150   0.37760601E-04
   0.41250   0.35882993E-04
   0.41350   0.33211651E-04
   0.41450   0.29112503E-04
   0.41550   0.25210848E-04
   0.41650   0.22582633E-04
   0.41750   0.20828564E-04
   0.41850   0.19668512E-04
   0.41950   0.18973895E-04
   0.42050   0.18699007E-04
   0.42150   0.18852332E-04
   0.42250   0.19488032E-04
   0.42350   0.20707110E-04
   0.42450   0.22662771E-04
   0.42550   0.25563288E-04
   0.42650   0.29658717E-04
   0.42750   0.35183897E-04
   0.42850   0.42217478E-04
   0.42950   0.50442792E-04
   0.43050   0.58928585E-04
   0.43150   0.66230430E-04
   0.43250   0.70983107E-04
   0.43350   0.72596435E-04
   0.43450   0.71451999E-04
   0.43550   0.68507725E-04
   0.43650   0.64746586E-04
   0.43750   0.60870207E-04
   0.43850   0.57268659E-04
   0.43950   0.54110271E-04
   0.44050   0.51437226E-04
   0.44150   0.49230894E-04
   0.44250   0.47448713E-04
   0.44350   0.46042689E-04
   0.44450   0.44967637E-04
   0.44550   0.44184319E-04
   0.44650   0.43660089E-04
   0.44750   0.43368538E-04
   0.44850   0.43288732E-04
   0.44950   0.43404343E-04
   0.45050   0.43702847E-04
   0.45150   0.44174765E-04
   0.45250   0.44812939E-04
   0.45350   0.45611821E-04
   0.45450   0.46566718E-04
   0.45550   0.47672846E-04
   0.45650   0.48924179E-04
   0.45750   0.50311795E-04
   0.45850   0.51821513E-04
   0.45950   0.53430325E-04
   0.46050   0.55100914E-04
   0.46150   0.56773017E-04
   0.46250   0.58349622E-04
   0.46350   0.59674778E-04
   0.46450   0.60498354E-04
   0.46550   0.60424100E-04
   0.46650   0.58853009E-04
   0.46750   0.55016157E-04
   0.46850   0.48497081E-04
   0.46950   0.41355674E-04
   0.47050   0.41232714E-04
   0.47150   0.54930893E-04
   0.47250   0.75871903E-04
   0.47350   0.93666138E-04
   0.47450   0.10477240E-03
   0.47550   0.10928413E-03
   0.47650   0.10768632E-03
   0.47750   0.10050543E-03
   0.47850   0.89187248E-04
   0.47950   0.77131263E-04
   0.48050   0.69223614E-04
   0.48150   0.69802256E-04
   0.48250   0.80179096E-04
   0.48350   0.10631305E-03
   0.48450   0.16006203E-03
   0.48550   0.24634926E-03
   0.48650   0.35243927E-03
   0.48750   0.45408538E-03
   0.48850   0.53106691E-03
   0.48950   0.57640683E-03
   0.49050   0.59547793E-03
   0.49150   0.60178875E-03
   0.49250   0.87164034E-03
   0.49350   0.51318033E-03
   0.49450   0.58077881E-03
   0.49550   0.20389421E-01
   0.49650   0.13334105E-02
   0.49750   0.17806420E-01
   0.49850   0.21242427E-02
   0.49950   0.18452451E-02
   0.50050   0.15656528E-02
   0.50150   0.16823391E-02
   0.50250   0.21504881E-02
   0.50350   0.26148891E-02
   0.50450   0.27439878E-02
   0.50550   0.25180578E-02
   0.50650   0.20908595E-02
   0.50750   0.16210689E-02
   0.50850   0.12194684E-02
   0.50950   0.93560031E-03
   0.51050   0.77646505E-03
   0.51150   0.72932331E-03
   0.51250   0.77283138E-03
   0.51350   0.88121835E-03
   0.51450   0.10260863E-02
   0.51550   0.11791289E-02
   0.51650   0.13153969E-02
   0.51750   0.14148110E-02
   0.51850   0.14638614E-02
   0.51950   0.14593912E-02
   0.52050   0.14089342E-02
   0.52150   0.13302289E-02
   0.52250   0.12480060E-02
   0.52350   0.11699296E-02
   0.52450   0.10994452E-02
   0.52550   0.10422871E-02
   0.52650   0.10042060E-02
   0.52750   0.98774850E-03
   0.52850   0.99121733E-03
   0.52950   0.10097477E-02
   0.53050   0.10373835E-02
   0.53150   0.10684566E-02
   0.53250   0.10916285E-02
   0.53350   0.10660534E-02
   0.53450   0.99620898E-03
   0.53550   0.93217107E-03
   0.53650   0.87997207E-03
   0.53750   0.83592784E-03
   0.53850   0.79687173E-03
   0.53950   0.76104415E-03
   0.54050   0.72779908E-03
   0.54150   0.69710286E-03
   0.54250   0.66907669E-03
   0.54350   0.64370799E-03
   0.54450   0.62075647E-03
   0.54550   0.59980573E-03
   0.54650   0.58038649E-03
   0.54750   0.56210003E-03
   0.54850   0.54469582E-03
   0.54950   0.52808324E-03
   0.55050   0.51228737E-03
   0.55150   0.49737858E-03
   0.55250   0.48340723E-03
   0.55350   0.47036420E-03
   0.55450   0.45817354E-03
   0.55550   0.44671039E-03
   0.55650   0.43583225E-03
   0.55750   0.42541022E-03
   0.55850   0.41535043E-03
   0.55950   0.40560091E-03
   0.56050   0.39614516E-03
   0.56150   0.38698665E-03
   0.56250   0.37813067E-03
   0.56350   0.36956902E-03
   0.56450   0.36126902E-03
   0.56550   0.35316628E-03
   0.56650   0.34515699E-03
   0.56750   0.33708278E-03
   0.56850   0.32869942E-03
   0.56950   0.31961920E-03
   0.57050   0.30922334E-03
   0.57150   0.29657976E-03
   0.57250   0.28054317E-03
   0.57350   0.26055920E-03
   0.57450   0.23888632E-03
   0.57550   0.22282326E-03
   0.57650   0.22038349E-03
   0.57750   0.22962221E-03
   0.57850   0.24004567E-03
   0.57950   0.24495879E-03
   0.58050   0.24433152E-03
   0.58150   0.24042367E-03
   0.58250   0.23508273E-03
   0.58350   0.22933577E-03
   0.58450   0.22366297E-03
   0.58550   0.21826141E-03
   0.58650   0.21319631E-03
   0.58750   0.20847483E-03
   0.58850   0.20407984E-03
   0.58950   0.19998509E-03
   0.59050   0.19616194E-03
   0.59150   0.19258227E-03
   0.59250   0.18921944E-03
   0.59350   0.18604811E-03
   0.59450   0.18304314E-03
   0.59550   0.18017793E-03
   0.59650   0.17742204E-03
   0.59750   0.17473850E-03
   0.59850   0.17208033E-03
   0.59950   0.16938667E-03
   0.60050   0.16657799E-03
   0.60150   0.16355034E-03
   0.60250   0.16016907E-03
   0.60350   0.15626327E-03
   0.60450   0.15162732E-03
   0.60550   0.14604810E-03
   0.60650   0.13941602E-03
   0.60750   0.13209759E-03
   0.60850   0.12612199E-03
   0.60950   0.12882087E-03
   0.61050   0.16256027E-03
   0.61150   0.27694699E-03
   0.61250   0.49266627E-03
   0.61350   0.65554795E-03
   0.61450   0.67566830E-03
   0.61550   0.65823976E-03
   0.61650   0.65688760E-03
   0.61750   0.66883303E-03
   0.61850   0.65007556E-03
   0.61950   0.59319573E-03
   0.62050   0.53951697E-03
   0.62150   0.49708341E-03
   0.62250   0.46609857E-03
   0.62350   0.44289962E-03
   0.62450   0.42262263E-03
   0.62550   0.40457549E-03
   0.62650   0.38859859E-03
   0.62750   0.37446193E-03
   0.62850   0.36192144E-03
   0.62950   0.35075244E-03
   0.63050   0.34075958E-03
   0.63150   0.33177753E-03
   0.63250   0.32366827E-03
   0.63350   0.31631760E-03
   0.63450   0.30963137E-03
   0.63550   0.30353185E-03
   0.63650   0.29795448E-03
   0.63750   0.29284519E-03
   0.63850   0.28815775E-03
   0.63950   0.28385225E-03
   0.64050   0.27989328E-03
   0.64150   0.27624928E-03
   0.64250   0.27289186E-03
   0.64350   0.26979545E-03
   0.64450   0.26693739E-03
   0.64550   0.26429794E-03
   0.64650   0.26186046E-03
   0.64750   0.25961158E-03
   0.64850   0.25754125E-03
   0.64950   0.25564275E-03
   0.65050   0.25391253E-03
   0.65150   0.25235000E-03
   0.65250   0.25095727E-03
   0.65350   0.24973878E-03
   0.65450   0.24870102E-03
   0.65550   0.24785218E-03
   0.65650   0.24720200E-03
   0.65750   0.24676180E-03
   0.65850   0.24654448E-03
   0.65950   0.24656497E-03
   0.66050   0.24684088E-03
   0.66150   0.24739362E-03
   0.66250   0.24825014E-03
   0.66350   0.24944579E-03
   0.66450   0.25102877E-03
   0.66550   0.25306334E-03
   0.66650   0.25557654E-03
   0.66750   0.25693551E-03
   0.66850   0.21343658E-03
   0.66950   0.23987252E-03
   0.67050   0.25459452E-03
   0.67150   0.26088158E-03
   0.67250   0.26468278E-03
   0.67350   0.26613005E-03
   0.67450   0.26385416E-03
   0.67550   0.25733872E-03
   0.67650   0.25797263E-03
   0.67750   0.31788551E-03
   0.67850   0.47821217E-03
   0.67950   0.62747707E-03
   0.68050   0.72602590E-03
   0.68150   0.81004295E-03
   0.68250   0.89322904E-03
   0.68350   0.10480855E-02
   0.68450   0.19418461E-01
   0.68550   0.28789809E-02
   0.68650   0.22324763E-01
   0.68750   0.11982612E-01
   0.68850   0.47324491E-02
   0.68950   0.40132650E-02
   0.69050   0.35365806E-02
   0.69150   0.31895009E-02
   0.69250   0.30233581E-02
   0.69350   0.29461572E-02
   0.69450   0.29081707E-02
   0.69550   0.29082221E-02
   0.69650   0.29447943E-02
   0.69750   0.30006417E-02
   0.69850   0.30570403E-02
   0.69950   0.31067878E-02
   0.70050   0.31549262E-02
   0.70150   0.32098358E-02
   0.70250   0.32734794E-02
   0.70350   0.33349684E-02
   0.70450   0.33507152E-02
   0.70550   0.31751795E-02
   0.70650   0.28201549E-02
   0.70750   0.25083714E-02
   0.70850   0.22638023E-02
   0.70950   0.20673519E-02
   0.71050   0.19045972E-02
   0.71150   0.17668246E-02
   0.71250   0.16487944E-02
   0.71350   0.15469422E-02
   0.71450   0.14583373E-02
   0.71550   0.13802822E-02
   0.71650   0.13102944E-02
   0.71750   0.12462345E-02
   0.71850   0.11864275E-02
   0.71950   0.11297107E-02
   0.72050   0.10753955E-02
   0.72150   0.10231674E-02
   0.72250   0.97295700E-03
   0.72350   0.92481892E-03
   0.72450   0.87883935E-03
   0.72550   0.83508313E-03
   0.72650   0.79357513E-03
   0.72750   0.75430318E-03
   0.72850   0.71723259E-03
   0.72950   0.68232528E-03
   0.73050   0.64957212E-03
   0.73150   0.61905972E-03
   0.73250   0.59077743E-03
   0.73350   0.56343107E-03
   0.73450   0.53661218E-03
   0.73550   0.51077397E-03
   0.73650   0.48611121E-03
   0.73750   0.46268012E-03
   0.73850   0.44048915E-03
   0.73950   0.41953300E-03
   0.74050   0.39980686E-03
   0.74150   0.38131248E-03
   0.74250   0.36406040E-03
   0.74350   0.34806857E-03
   0.74450   0.33335891E-03
   0.74550   0.31995165E-03
   0.74650   0.30785927E-03
   0.74750   0.29708107E-03
   0.74850   0.28759893E-03
   0.74950   0.27937497E-03
   0.75050   0.27235108E-03
   0.75150   0.26644979E-03
   0.75250   0.26157624E-03
   0.75350   0.25762091E-03
   0.75450   0.25446276E-03
   0.75550   0.25197276E-03
   0.75650   0.25001788E-03
   0.75750   0.24846589E-03
   0.75850   0.24719036E-03
   0.75950   0.24607641E-03
   0.76050   0.24502625E-03
   0.76150   0.24396446E-03
   0.76250   0.24284229E-03
   0.76350   0.24164097E-03
   0.76450   0.24037364E-03
   0.76550   0.23908608E-03
   0.76650   0.23785639E-03
   0.76750   0.23679424E-03
   0.76850   0.23603936E-03
   0.76950   0.23576015E-03
   0.77050   0.23615210E-03
   0.77150   0.23743628E-03
   0.77250   0.23985813E-03
   0.77350   0.24368668E-03
   0.77450   0.24921482E-03
   0.77550   0.25676080E-03
   0.77650   0.26667162E-03
   0.77750   0.27932724E-03
   0.77850   0.29513947E-03
   0.77950   0.31450731E-03
   0.78050   0.33750609E-03
   0.78150   0.36186629E-03
   0.78250   0.37818929E-03
   0.78350   0.38922174E-03
   0.78450   0.40405701E-03
   0.78550   0.42315293E-03
   0.78650   0.44564719E-03
   0.78750   0.47080708E-03
   0.78850   0.49806555E-03
   0.78950   0.52696449E-03
   0.79050   0.55711402E-03
   0.79150   0.58816787E-03
   0.79250   0.61980740E-03
   0.79350   0.65173104E-03
   0.79450   0.68364624E-03
   0.79550   0.71526313E-03
   0.79650   0.74628927E-03
   0.79750   0.77642570E-03
   0.79850   0.80536492E-03
   0.79950   0.83279621E-03
   0.80050   0.85844047E-03
   0.80150   0.88223972E-03
   0.80250   0.90559904E-03
   0.80350   0.94466395E-03
   0.80450   0.15647160E-02
   0.80550   0.13454120E-02
   0.80650   0.11222733E-02
   0.80750   0.11060202E-02
   0.80850   0.11331803E-02
   0.80950   0.12092702E-02
   0.81050   0.14362673E-02
   0.81150   0.28824231E-02
   0.81250   0.66083828E-02
   0.81350   0.74275597E-02
   0.81450   0.80619697E-02
   0.81550   0.50064740E-02
   0.81650   0.12176643E-01
   0.81750   0.40082805E-01
   0.81850   0.10486614E+00
   0.81950   0.16170859E+00
   0.82050   0.92995860E-01
   0.82150   0.49516596E-01
   0.82250   0.27359197E-01
   0.82350   0.19028785E-01
   0.82450   0.15207417E-01
   0.82550   0.12435018E-01
   0.82650   0.10648160E-01
   0.82750   0.97263204E-02
   0.82850   0.94060143E-02
   0.82950   0.93247676E-02
   0.83050   0.93004759E-02
   0.83150   0.92045907E-02
   0.83250   0.89061987E-02
   0.83350   0.84783798E-02
   0.83450   0.80941953E-02
   0.83550   0.78005469E-02
   0.83650   0.75429128E-02
   0.83750   0.73001599E-02
   0.83850   0.71236775E-02
   0.83950   0.70629190E-02
   0.84050   0.71153780E-02
   0.84150   0.72333813E-02
   0.84250   0.73342016E-02
   0.84350   0.73178867E-02
   0.84450   0.72887475E-02
   0.84550   0.73422743E-02
   0.84650   0.74562589E-02
   0.84750   0.75850422E-02
   0.84850   0.76487996E-02
   0.84950   0.76838615E-02
   0.85050   0.77482602E-02
   0.85150   0.78515923E-02
   0.85250   0.79914443E-02
   0.85350   0.81621045E-02
   0.85450   0.83571281E-02
   0.85550   0.85706934E-02
   0.85650   0.87979361E-02
   0.85750   0.90343561E-02
   0.85850   0.92749530E-02
   0.85950   0.95138717E-02
   0.86050   0.97450083E-02
   0.86150   0.99634444E-02
   0.86250   0.10167018E-01
   0.86350   0.10357111E-01
   0.86450   0.10538152E-01
   0.86550   0.10716103E-01
   0.86650   0.10896772E-01
   0.86750   0.11084763E-01
   0.86850   0.11283361E-01
   0.86950   0.11495181E-01
   0.87050   0.11723059E-01
   0.87150   0.11970527E-01
   0.87250   0.12241530E-01
   0.87350   0.12539482E-01
   0.87450   0.12866198E-01
   0.87550   0.13221224E-01
   0.87650   0.13601869E-01
   0.87750   0.14004011E-01
   0.87850   0.14423499E-01
   0.87950   0.14857770E-01
   0.88050   0.15307004E-01
   0.88150   0.15774244E-01
   0.88250   0.16264450E-01
   0.88350   0.16783092E-01
   0.88450   0.17335083E-01
   0.88550   0.17924480E-01
   0.88650   0.18554822E-01
   0.88750   0.19229801E-01
   0.88850   0.19953977E-01
   0.88950   0.20733358E-01
   0.89050   0.21575781E-01
   0.89150   0.22491066E-01
   0.89250   0.23491058E-01
   0.89350   0.24589874E-01
   0.89450   0.25805091E-01
   0.89550   0.27161039E-01
   0.89650   0.28695535E-01
   0.89750   0.30469963E-01
   0.89850   0.32575723E-01
   0.89950   0.35117108E-01
   0.90050   0.38158525E-01
   0.90150   0.41463636E-01
   0.90250   0.44541955E-01
   0.90350   0.47330707E-01
   0.90450   0.50092690E-01
   0.90550   0.56074098E-01
   0.90650   0.89376122E-01
   0.90750   0.68075649E-01
   0.90850   0.71234941E-01
   0.90950   0.80815814E-01
   0.91050   0.92750207E-01
   0.91150   0.94271012E-01
   0.91250   0.89214697E-01
   0.91350   0.91856301E-01
   0.91450   0.12179248E+00
   0.91550   0.15662289E+00
   0.91650   0.19154230E+00
   0.91750   0.22749774E+00
   0.91850   0.25141358E+00
   0.91950   0.28219366E+00
   0.92050   0.29846680E+00
   0.92150   0.31852695E+00
   0.92250   0.32878375E+00
   0.92350   0.31089592E+00
   0.92450   0.28151849E+00
   0.92550   0.25037569E+00
   0.92650   0.21967413E+00
   0.92750   0.19677445E+00
   0.92850   0.18421376E+00
   0.92950   0.17959653E+00
   0.93050   0.17978303E+00
   0.93150   0.18253805E+00
   0.93250   0.18658131E+00
   0.93350   0.19081710E+00
   0.93450   0.19384363E+00
   0.93550   0.19468811E+00
   0.93650   0.19361220E+00
   0.93750   0.19170290E+00
   0.93850   0.19028239E+00
   0.93950   0.19041938E+00
   0.94050   0.19239958E+00
   0.94150   0.19589823E+00
   0.94250   0.20044883E+00
   0.94350   0.20573412E+00
   0.94450   0.21170951E+00
   0.94550   0.21857253E+00
   0.94650   0.22631162E+00
   0.94750   0.23394229E+00
   0.94850   0.24061492E+00
   0.94950   0.24609442E+00
   0.95050   0.25016403E+00
   0.95150   0.25226778E+00
   0.95250   0.25252789E+00
   0.95350   0.25276121E+00
   0.95450   0.25504360E+00
   0.95550   0.26046854E+00
   0.95650   0.26823854E+00
   0.95750   0.27657238E+00
   0.95850   0.28508124E+00
   0.95950   0.29342535E+00
   0.96050   0.30115321E+00
   0.96150   0.30801371E+00
   0.96250   0.31417769E+00
   0.96350   0.32020634E+00
   0.96450   0.32688659E+00
   0.96550   0.33512840E+00
   0.96650   0.34594753E+00
   0.96750   0.36035055E+00
   0.96850   0.37899992E+00
   0.96950   0.40180230E+00
   0.97050   0.42743102E+00
   0.97150   0.45290324E+00
   0.97250   0.47469357E+00
   0.97350   0.49157175E+00
   0.97450   0.50347090E+00
   0.97550   0.50740588E+00
   0.97650   0.50258446E+00
   0.97750   0.49052563E+00
   0.97850   0.47453088E+00
   0.97950   0.46012282E+00
   0.98050   0.46058288E+00
   0.98150   0.48212907E+00
   0.98250   0.50456172E+00
   0.98350   0.52603507E+00
   0.98450   0.55494159E+00
   0.98550   0.59185904E+00
   0.98650   0.63472742E+00
   0.98750   0.67249608E+00
   0.98850   0.67580283E+00
   0.98950   0.65718085E+00
   0.99050   0.65662426E+00
   0.99150   0.66715825E+00
   0.99250   0.68833679E+00
   0.99350   0.72163016E+00
   0.99450   0.75437915E+00
   0.99550   0.77611959E+00
   0.99650   0.80167115E+00
   0.99750   0.82450205E+00
   0.99850   0.83841163E+00
   0.99950   0.87217975E+00
