# Transmission, k-averaged
# Date: 2021-05-13
#   E [eV]           T [G0]
   0.00050   0.67037246E-02
   0.00150   0.11088772E-01
   0.00250   0.21438379E-01
   0.00350   0.10669866E-01
   0.00450   0.12217126E-01
   0.00550   0.27704785E-01
   0.00650   0.95764836E-02
   0.00750   0.10681129E-01
   0.00850   0.45802370E-01
   0.00950   0.58793607E-02
   0.01050   0.10768590E-01
   0.01150   0.87751389E-01
   0.01250   0.70380331E-02
   0.01350   0.52723866E-02
   0.01450   0.15857089E-01
   0.01550   0.65867849E-01
   0.01650   0.76456652E-02
   0.01750   0.46275845E-02
   0.01850   0.69150915E-02
   0.01950   0.35154767E-01
   0.02050   0.35466298E-01
   0.02150   0.71620806E-02
   0.02250   0.44831783E-02
   0.02350   0.54293647E-02
   0.02450   0.13852122E-01
   0.02550   0.11090848E+00
   0.02650   0.17809696E-01
   0.02750   0.61909724E-02
   0.02850   0.45055375E-02
   0.02950   0.54471898E-02
   0.03050   0.11803741E-01
   0.03150   0.77641211E-01
   0.03250   0.39423179E-01
   0.03350   0.95725795E-02
   0.03450   0.55790185E-02
   0.03550   0.53206082E-02
   0.03650   0.79120183E-02
   0.03750   0.21987714E-01
   0.03850   0.19065967E+00
   0.03950   0.38276166E-01
   0.04050   0.13009698E-01
   0.04150   0.94403205E-02
   0.04250   0.11443315E-01
   0.04350   0.24366448E-01
   0.04450   0.12231012E+00
   0.04550   0.48759416E+00
   0.04650   0.29716438E+00
   0.04750   0.22203255E+00
   0.04850   0.21201104E+00
   0.04950   0.24168193E+00
   0.05050   0.31566313E+00
   0.05150   0.44697228E+00
   0.05250   0.61182952E+00
   0.05350   0.69531685E+00
   0.05450   0.64523619E+00
   0.05550   0.55981326E+00
   0.05650   0.50538969E+00
   0.05750   0.49166462E+00
   0.05850   0.51359421E+00
   0.05950   0.56348151E+00
   0.06050   0.62779260E+00
   0.06150   0.68422085E+00
   0.06250   0.71119982E+00
   0.06350   0.70511353E+00
   0.06450   0.68097526E+00
   0.06550   0.65672803E+00
   0.06650   0.64308667E+00
   0.06750   0.64341974E+00
   0.06850   0.65641552E+00
   0.06950   0.67783850E+00
   0.07050   0.70160741E+00
   0.07150   0.72130793E+00
   0.07250   0.73238361E+00
   0.07350   0.73385459E+00
   0.07450   0.72821885E+00
   0.07550   0.71970671E+00
   0.07650   0.71231806E+00
   0.07750   0.70868701E+00
   0.07850   0.70981556E+00
   0.07950   0.71526963E+00
   0.08050   0.72354227E+00
   0.08150   0.73250663E+00
   0.08250   0.73996627E+00
   0.08350   0.74424046E+00
   0.08450   0.74460953E+00
   0.08550   0.74143553E+00
   0.08650   0.73591626E+00
   0.08750   0.72962207E+00
   0.08850   0.72403538E+00
   0.08950   0.72026652E+00
   0.09050   0.71911389E+00
   0.09150   0.72220832E+00
   0.09250   0.73401773E+00
   0.09350   0.74992013E+00
   0.09450   0.76284981E+00
   0.09550   0.77219385E+00
   0.09650   0.77868843E+00
   0.09750   0.78326285E+00
   0.09850   0.78680682E+00
   0.09950   0.79004854E+00
   0.10050   0.79348582E+00
   0.10150   0.79736716E+00
   0.10250   0.80171454E+00
   0.10350   0.80637515E+00
   0.10450   0.81108934E+00
   0.10550   0.81556398E+00
   0.10650   0.81953955E+00
   0.10750   0.82284087E+00
   0.10850   0.82540393E+00
   0.10950   0.82727760E+00
   0.11050   0.82860208E+00
   0.11150   0.82957315E+00
   0.11250   0.83040053E+00
   0.11350   0.83127069E+00
   0.11450   0.83231848E+00
   0.11550   0.83361244E+00
   0.11650   0.83515269E+00
   0.11750   0.83688003E+00
   0.11850   0.83869386E+00
   0.11950   0.84047401E+00
   0.12050   0.84210408E+00
   0.12150   0.84349138E+00
   0.12250   0.84458107E+00
   0.12350   0.84536260E+00
   0.12450   0.84586781E+00
   0.12550   0.84616250E+00
   0.12650   0.84633261E+00
   0.12750   0.84646893E+00
   0.12850   0.84665257E+00
   0.12950   0.84694314E+00
   0.13050   0.84737164E+00
   0.13150   0.84793830E+00
   0.13250   0.84861499E+00
   0.13350   0.84935218E+00
   0.13450   0.85008770E+00
   0.13550   0.85075772E+00
   0.13650   0.85130638E+00
   0.13750   0.85169429E+00
   0.13850   0.85190332E+00
   0.13950   0.85193849E+00
   0.14050   0.85182554E+00
   0.14150   0.85160619E+00
   0.14250   0.85133052E+00
   0.14350   0.85104954E+00
   0.14450   0.85080707E+00
   0.14550   0.85063410E+00
   0.14650   0.85054469E+00
   0.14750   0.85053474E+00
   0.14850   0.85058337E+00
   0.14950   0.85065651E+00
   0.15050   0.85071230E+00
   0.15150   0.85070753E+00
   0.15250   0.85060376E+00
   0.15350   0.85037267E+00
   0.15450   0.85000008E+00
   0.15550   0.84948772E+00
   0.15650   0.84885222E+00
   0.15750   0.84812284E+00
   0.15850   0.84733677E+00
   0.15950   0.84653378E+00
   0.16050   0.84575075E+00
   0.16150   0.84501636E+00
   0.16250   0.84434736E+00
   0.16350   0.84374672E+00
   0.16450   0.84320307E+00
   0.16550   0.84269285E+00
   0.16650   0.84218389E+00
   0.16750   0.84164035E+00
   0.16850   0.84102875E+00
   0.16950   0.84032398E+00
   0.17050   0.83951545E+00
   0.17150   0.83861399E+00
   0.17250   0.83766133E+00
   0.17350   0.83675575E+00
   0.17450   0.83614516E+00
   0.17550   0.83650261E+00
   0.17650   0.83795857E+00
   0.17750   0.83914846E+00
   0.17850   0.83988088E+00
   0.17950   0.84030271E+00
   0.18050   0.84050846E+00
   0.18150   0.84055042E+00
   0.18250   0.84045833E+00
   0.18350   0.84025007E+00
   0.18450   0.83993787E+00
   0.18550   0.83953154E+00
   0.18650   0.83904022E+00
   0.18750   0.83847338E+00
   0.18850   0.83784091E+00
   0.18950   0.83715332E+00
   0.19050   0.83642101E+00
   0.19150   0.83565414E+00
   0.19250   0.83486164E+00
   0.19350   0.83405101E+00
   0.19450   0.83322757E+00
   0.19550   0.83239448E+00
   0.19650   0.83155245E+00
   0.19750   0.83069974E+00
   0.19850   0.82983267E+00
   0.19950   0.82894593E+00
   0.20050   0.82803315E+00
   0.20150   0.82708758E+00
   0.20250   0.82610297E+00
   0.20350   0.82507390E+00
   0.20450   0.82399648E+00
   0.20550   0.82286882E+00
   0.20650   0.82169110E+00
   0.20750   0.82046533E+00
   0.20850   0.81919545E+00
   0.20950   0.81788617E+00
   0.21050   0.81654215E+00
   0.21150   0.81516683E+00
   0.21250   0.81376016E+00
   0.21350   0.81231618E+00
   0.21450   0.81081897E+00
   0.21550   0.80923814E+00
   0.21650   0.80754340E+00
   0.21750   0.80596137E+00
   0.21850   0.80543858E+00
   0.21950   0.80582029E+00
   0.22050   0.80657279E+00
   0.22150   0.80751997E+00
   0.22250   0.80859780E+00
   0.22350   0.80977422E+00
   0.22450   0.81102884E+00
   0.22550   0.81234550E+00
   0.22650   0.81370938E+00
   0.22750   0.81510514E+00
   0.22850   0.81651610E+00
   0.22950   0.81792271E+00
   0.23050   0.81930178E+00
   0.23150   0.82062513E+00
   0.23250   0.82185924E+00
   0.23350   0.82297629E+00
   0.23450   0.82406998E+00
   0.23550   0.82550818E+00
   0.23650   0.82709932E+00
   0.23750   0.82856804E+00
   0.23850   0.82984817E+00
   0.23950   0.83091980E+00
   0.24050   0.83177239E+00
   0.24150   0.83239776E+00
   0.24250   0.83278888E+00
   0.24350   0.83293957E+00
   0.24450   0.83284432E+00
   0.24550   0.83249837E+00
   0.24650   0.83189803E+00
   0.24750   0.83104062E+00
   0.24850   0.82992476E+00
   0.24950   0.82855040E+00
   0.25050   0.82691926E+00
   0.25150   0.82503438E+00
   0.25250   0.82290071E+00
   0.25350   0.82052439E+00
   0.25450   0.81791288E+00
   0.25550   0.81507438E+00
   0.25650   0.81201768E+00
   0.25750   0.80875111E+00
   0.25850   0.80528247E+00
   0.25950   0.80161798E+00
   0.26050   0.79776180E+00
   0.26150   0.79371536E+00
   0.26250   0.78947681E+00
   0.26350   0.78504062E+00
   0.26450   0.78039694E+00
   0.26550   0.77553177E+00
   0.26650   0.77042633E+00
   0.26750   0.76505750E+00
   0.26850   0.75939775E+00
   0.26950   0.75341547E+00
   0.27050   0.74707538E+00
   0.27150   0.74033910E+00
   0.27250   0.73316556E+00
   0.27350   0.72551197E+00
   0.27450   0.71733451E+00
   0.27550   0.70858902E+00
   0.27650   0.69923204E+00
   0.27750   0.68922168E+00
   0.27850   0.67851871E+00
   0.27950   0.66708726E+00
   0.28050   0.65489608E+00
   0.28150   0.64191943E+00
   0.28250   0.62813812E+00
   0.28350   0.61354053E+00
   0.28450   0.59812337E+00
   0.28550   0.58189291E+00
   0.28650   0.56486535E+00
   0.28750   0.54706770E+00
   0.28850   0.52853829E+00
   0.28950   0.50932676E+00
   0.29050   0.48949441E+00
   0.29150   0.46911341E+00
   0.29250   0.44826663E+00
   0.29350   0.42704642E+00
   0.29450   0.40555364E+00
   0.29550   0.38389644E+00
   0.29650   0.36218938E+00
   0.29750   0.34055576E+00
   0.29850   0.31914103E+00
   0.29950   0.29809776E+00
   0.30050   0.27744353E+00
   0.30150   0.25723699E+00
   0.30250   0.23758636E+00
   0.30350   0.21858993E+00
   0.30450   0.20033178E+00
   0.30550   0.18288228E+00
   0.30650   0.16629842E+00
   0.30750   0.15062401E+00
   0.30850   0.13588993E+00
   0.30950   0.12211463E+00
   0.31050   0.10930467E+00
   0.31150   0.97455643E-01
   0.31250   0.86553179E-01
   0.31350   0.76574050E-01
   0.31450   0.67487411E-01
   0.31550   0.59256043E-01
   0.31650   0.51837627E-01
   0.31750   0.45185953E-01
   0.31850   0.39252099E-01
   0.31950   0.33985484E-01
   0.32050   0.29334869E-01
   0.32150   0.25249183E-01
   0.32250   0.21678284E-01
   0.32350   0.18573575E-01
   0.32450   0.15888521E-01
   0.32550   0.13579045E-01
   0.32650   0.11603847E-01
   0.32750   0.99246241E-02
   0.32850   0.85062291E-02
   0.32950   0.73167766E-02
   0.33050   0.63277078E-02
   0.33150   0.55138408E-02
   0.33250   0.48534325E-02
   0.33350   0.43282853E-02
   0.33450   0.39239526E-02
   0.33550   0.36301343E-02
   0.33650   0.34414008E-02
   0.33750   0.33585278E-02
   0.33850   0.33909464E-02
   0.33950   0.35613501E-02
   0.34050   0.39146403E-02
   0.34150   0.45360993E-02
   0.34250   0.55904002E-02
   0.34350   0.74110022E-02
   0.34450   0.10720435E-01
   0.34550   0.17215494E-01
   0.34650   0.31219965E-01
   0.34750   0.64330213E-01
   0.34850   0.14521070E+00
   0.34950   0.31015369E+00
   0.35050   0.47369075E+00
   0.35150   0.44415897E+00
   0.35250   0.31007981E+00
   0.35350   0.20629081E+00
   0.35450   0.14622359E+00
   0.35550   0.11303113E+00
   0.35650   0.94547845E-01
   0.35750   0.84341615E-01
   0.35850   0.79141721E-01
   0.35950   0.77263810E-01
   0.36050   0.77848025E-01
   0.36150   0.80483198E-01
   0.36250   0.84573798E-01
   0.36350   0.87547071E-01
   0.36450   0.88491872E-01
   0.36550   0.88358700E-01
   0.36650   0.87472141E-01
   0.36750   0.85886978E-01
   0.36850   0.83585486E-01
   0.36950   0.80534689E-01
   0.37050   0.76707013E-01
   0.37150   0.72090015E-01
   0.37250   0.66692673E-01
   0.37350   0.60550883E-01
   0.37450   0.53733997E-01
   0.37550   0.46353489E-01
   0.37650   0.38575232E-01
   0.37750   0.30636065E-01
   0.37850   0.22864196E-01
   0.37950   0.15699776E-01
   0.38050   0.97126253E-02
   0.38150   0.56747608E-02
   0.38250   0.52769296E-02
   0.38350   0.17746711E-01
   0.38450   0.10160664E+00
   0.38550   0.25667796E+00
   0.38650   0.24917528E+00
   0.38750   0.18589371E+00
   0.38850   0.88713504E-01
   0.38950   0.26939265E-01
   0.39050   0.22331704E+00
   0.39150   0.44749561E+00
   0.39250   0.48722708E+00
   0.39350   0.45391658E+00
   0.39450   0.40612659E+00
   0.39550   0.35966820E+00
   0.39650   0.31798679E+00
   0.39750   0.28111002E+00
   0.39850   0.24801303E+00
   0.39950   0.21717173E+00
   0.40050   0.18646589E+00
   0.40150   0.15312004E+00
   0.40250   0.19506431E+00
   0.40350   0.14230172E+00
   0.40450   0.10944528E+00
   0.40550   0.88085845E-01
   0.40650   0.10571653E+00
   0.40750   0.39330438E+00
   0.40850   0.12571141E+01
   0.40950   0.11984111E+01
   0.41050   0.10890913E+01
   0.41150   0.10975198E+01
   0.41250   0.10751258E+01
   0.41350   0.11329329E+01
   0.41450   0.11672227E+01
   0.41550   0.11549830E+01
   0.41650   0.11799412E+01
   0.41750   0.11985565E+01
   0.41850   0.11894709E+01
   0.41950   0.11768067E+01
   0.42050   0.11691285E+01
   0.42150   0.11571269E+01
   0.42250   0.11357151E+01
   0.42350   0.11088604E+01
   0.42450   0.10815495E+01
   0.42550   0.10551729E+01
   0.42650   0.10291107E+01
   0.42750   0.10032290E+01
   0.42850   0.97835284E+00
   0.42950   0.95537448E+00
   0.43050   0.93457651E+00
   0.43150   0.91570395E+00
   0.43250   0.89840305E+00
   0.43350   0.88254243E+00
   0.43450   0.86821866E+00
   0.43550   0.85553890E+00
   0.43650   0.84439468E+00
   0.43750   0.83437884E+00
   0.43850   0.82486326E+00
   0.43950   0.81516641E+00
   0.44050   0.80471641E+00
   0.44150   0.79314429E+00
   0.44250   0.78029346E+00
   0.44350   0.76617420E+00
   0.44450   0.75090599E+00
   0.44550   0.73467863E+00
   0.44650   0.71773678E+00
   0.44750   0.70037532E+00
   0.44850   0.68292844E+00
   0.44950   0.66574609E+00
   0.45050   0.64916599E+00
   0.45150   0.63349521E+00
   0.45250   0.61900735E+00
   0.45350   0.60595256E+00
   0.45450   0.59456712E+00
   0.45550   0.58507264E+00
   0.45650   0.57766157E+00
   0.45750   0.57247281E+00
   0.45850   0.56956625E+00
   0.45950   0.56890452E+00
   0.46050   0.57034564E+00
   0.46150   0.57364923E+00
   0.46250   0.57849354E+00
   0.46350   0.58450025E+00
   0.46450   0.59126353E+00
   0.46550   0.59837747E+00
   0.46650   0.60545886E+00
   0.46750   0.61216271E+00
   0.46850   0.61819202E+00
   0.46950   0.62330520E+00
   0.47050   0.62732470E+00
   0.47150   0.63014919E+00
   0.47250   0.63176930E+00
   0.47350   0.63228339E+00
   0.47450   0.63191170E+00
   0.47550   0.63100713E+00
   0.47650   0.63006645E+00
   0.47750   0.62974441E+00
   0.47850   0.63087302E+00
   0.47950   0.63447952E+00
   0.48050   0.64178818E+00
   0.48150   0.65418589E+00
   0.48250   0.67313004E+00
   0.48350   0.69998401E+00
   0.48450   0.73577666E+00
   0.48550   0.78089339E+00
   0.48650   0.83472675E+00
   0.48750   0.89535183E+00
   0.48850   0.95934457E+00
   0.48950   0.10218891E+01
   0.49050   0.10772491E+01
   0.49150   0.11194924E+01
   0.49250   0.11431900E+01
   0.49350   0.11438687E+01
   0.49450   0.11183115E+01
   0.49550   0.10650486E+01
   0.49650   0.98505610E+00
   0.49750   0.88150877E+00
   0.49850   0.75766909E+00
   0.49950   0.62443894E+00
   0.50050   0.50716615E+00
   0.50150   0.43390697E+00
   0.50250   0.41741392E+00
   0.50350   0.44752160E+00
   0.50450   0.50411755E+00
   0.50550   0.57023835E+00
   0.50650   0.63580298E+00
   0.50750   0.69613254E+00
   0.50850   0.74965936E+00
   0.50950   0.79631591E+00
   0.51050   0.83665222E+00
   0.51150   0.87141538E+00
   0.51250   0.90137118E+00
   0.51350   0.92723727E+00
   0.51450   0.94966227E+00
   0.51550   0.96922231E+00
   0.51650   0.98642355E+00
   0.51750   0.10017067E+01
   0.51850   0.10154536E+01
   0.51950   0.10279965E+01
   0.52050   0.10396430E+01
   0.52150   0.10507590E+01
   0.52250   0.10617092E+01
   0.52350   0.10728110E+01
   0.52450   0.10842628E+01
   0.52550   0.10957619E+01
   0.52650   0.11051356E+01
   0.52750   0.11028823E+01
   0.52850   0.10517023E+01
   0.52950   0.87412745E+00
   0.53050   0.72848111E+00
   0.53150   0.75352758E+00
   0.53250   0.81369340E+00
   0.53350   0.86039895E+00
   0.53450   0.89239472E+00
   0.53550   0.91436738E+00
   0.53650   0.92984509E+00
   0.53750   0.94098145E+00
   0.53850   0.94908017E+00
   0.53950   0.95495468E+00
   0.54050   0.95913023E+00
   0.54150   0.96195596E+00
   0.54250   0.96366918E+00
   0.54350   0.96443295E+00
   0.54450   0.96435952E+00
   0.54550   0.96352595E+00
   0.54650   0.96198434E+00
   0.54750   0.95976853E+00
   0.54850   0.95689571E+00
   0.54950   0.95335698E+00
   0.55050   0.94906986E+00
   0.55150   0.94367003E+00
   0.55250   0.93542641E+00
   0.55350   0.90946335E+00
   0.55450   0.74513626E+00
   0.55550   0.88921994E+00
   0.55650   0.90226948E+00
   0.55750   0.90114349E+00
   0.55850   0.89722514E+00
   0.55950   0.89256060E+00
   0.56050   0.88727987E+00
   0.56150   0.88601673E+00
   0.56250   0.88408458E+00
   0.56350   0.86179620E+00
   0.56450   0.72635388E+00
   0.56550   0.66217458E+00
   0.56650   0.77353799E+00
   0.56750   0.69687128E+00
   0.56850   0.11576124E+01
   0.56950   0.14831747E+01
   0.57050   0.18922030E+01
   0.57150   0.17357444E+01
   0.57250   0.19115864E+01
   0.57350   0.19200660E+01
   0.57450   0.19394183E+01
   0.57550   0.19381534E+01
   0.57650   0.19598628E+01
   0.57750   0.20193822E+01
   0.57850   0.19835597E+01
   0.57950   0.19481291E+01
   0.58050   0.19930366E+01
   0.58150   0.20470560E+01
   0.58250   0.20225766E+01
   0.58350   0.19747707E+01
   0.58450   0.19715919E+01
   0.58550   0.20078194E+01
   0.58650   0.20387824E+01
   0.58750   0.20369694E+01
   0.58850   0.20215769E+01
   0.58950   0.20195999E+01
   0.59050   0.20351272E+01
   0.59150   0.20537474E+01
   0.59250   0.20597134E+01
   0.59350   0.20509880E+01
   0.59450   0.20378771E+01
   0.59550   0.20302310E+01
   0.59650   0.20297701E+01
   0.59750   0.20311282E+01
   0.59850   0.20274067E+01
   0.59950   0.20159001E+01
   0.60050   0.19997079E+01
   0.60150   0.19844836E+01
   0.60250   0.19741794E+01
   0.60350   0.19690527E+01
   0.60450   0.19661938E+01
   0.60550   0.19616243E+01
   0.60650   0.19527597E+01
   0.60750   0.19397709E+01
   0.60850   0.19250494E+01
   0.60950   0.19114956E+01
   0.61050   0.19009668E+01
   0.61150   0.18936011E+01
   0.61250   0.18880200E+01
   0.61350   0.18821563E+01
   0.61450   0.18743169E+01
   0.61550   0.18639519E+01
   0.61650   0.18517519E+01
   0.61750   0.18393315E+01
   0.61850   0.18291026E+01
   0.61950   0.18213108E+01
   0.62050   0.18143805E+01
   0.62150   0.18069457E+01
   0.62250   0.17963854E+01
   0.62350   0.17840734E+01
   0.62450   0.17741261E+01
   0.62550   0.17664129E+01
   0.62650   0.17605128E+01
   0.62750   0.17563256E+01
   0.62850   0.17538627E+01
   0.62950   0.17530981E+01
   0.63050   0.17539018E+01
   0.63150   0.17560346E+01
   0.63250   0.17591860E+01
   0.63350   0.17630314E+01
   0.63450   0.17672851E+01
   0.63550   0.17717314E+01
   0.63650   0.17762253E+01
   0.63750   0.17806728E+01
   0.63850   0.17850038E+01
   0.63950   0.17891499E+01
   0.64050   0.17930335E+01
   0.64150   0.17965667E+01
   0.64250   0.17996589E+01
   0.64350   0.18022245E+01
   0.64450   0.18041922E+01
   0.64550   0.18055067E+01
   0.64650   0.18061254E+01
   0.64750   0.18060082E+01
   0.64850   0.18051065E+01
   0.64950   0.18033549E+01
   0.65050   0.18006727E+01
   0.65150   0.17969748E+01
   0.65250   0.17921891E+01
   0.65350   0.17862766E+01
   0.65450   0.17792434E+01
   0.65550   0.17711450E+01
   0.65650   0.17620767E+01
   0.65750   0.17521558E+01
   0.65850   0.17414972E+01
   0.65950   0.17301916E+01
   0.66050   0.17182885E+01
   0.66150   0.17057904E+01
   0.66250   0.16926560E+01
   0.66350   0.16788161E+01
   0.66450   0.16641929E+01
   0.66550   0.16487211E+01
   0.66650   0.16323614E+01
   0.66750   0.16150980E+01
   0.66850   0.15969110E+01
   0.66950   0.15776862E+01
   0.67050   0.15568861E+01
   0.67150   0.15304669E+01
   0.67250   0.14512222E+01
   0.67350   0.11095146E+01
   0.67450   0.14852540E+01
   0.67550   0.14706436E+01
   0.67650   0.14492458E+01
   0.67750   0.14252710E+01
   0.67850   0.13954842E+01
   0.67950   0.13453037E+01
   0.68050   0.12801445E+01
   0.68150   0.12512199E+01
   0.68250   0.11636279E+01
   0.68350   0.10335110E+01
   0.68450   0.11758162E+01
   0.68550   0.12960956E+01
   0.68650   0.15592828E+01
   0.68750   0.18708326E+01
   0.68850   0.20198960E+01
   0.68950   0.19725661E+01
   0.69050   0.21771584E+01
   0.69150   0.22058282E+01
   0.69250   0.22387805E+01
   0.69350   0.23590746E+01
   0.69450   0.24721482E+01
   0.69550   0.24678853E+01
   0.69650   0.24277701E+01
   0.69750   0.23886619E+01
   0.69850   0.23511770E+01
   0.69950   0.23363080E+01
   0.70050   0.23595135E+01
   0.70150   0.24034834E+01
   0.70250   0.24283643E+01
   0.70350   0.24193189E+01
   0.70450   0.24036670E+01
   0.70550   0.24110143E+01
   0.70650   0.24396729E+01
   0.70750   0.24712706E+01
   0.70850   0.24939356E+01
   0.70950   0.25050223E+01
   0.71050   0.25093570E+01
   0.71150   0.25128634E+01
   0.71250   0.25180466E+01
   0.71350   0.25236492E+01
   0.71450   0.25268681E+01
   0.71550   0.25259707E+01
   0.71650   0.25214915E+01
   0.71750   0.25154707E+01
   0.71850   0.25098307E+01
   0.71950   0.25053000E+01
   0.72050   0.25013649E+01
   0.72150   0.24969375E+01
   0.72250   0.24912136E+01
   0.72350   0.24842498E+01
   0.72450   0.24769762E+01
   0.72550   0.24706991E+01
   0.72650   0.24664412E+01
   0.72750   0.24644935E+01
   0.72850   0.24643447E+01
   0.72950   0.24649279E+01
   0.73050   0.24649451E+01
   0.73150   0.24628284E+01
   0.73250   0.24561529E+01
   0.73350   0.24465373E+01
   0.73450   0.24381642E+01
   0.73550   0.24312289E+01
   0.73650   0.24252126E+01
   0.73750   0.24195228E+01
   0.73850   0.24135334E+01
   0.73950   0.24066858E+01
   0.74050   0.23986049E+01
   0.74150   0.23891630E+01
   0.74250   0.23784676E+01
   0.74350   0.23667781E+01
   0.74450   0.23543935E+01
   0.74550   0.23415432E+01
   0.74650   0.23283226E+01
   0.74750   0.23146801E+01
   0.74850   0.23004503E+01
   0.74950   0.22854211E+01
   0.75050   0.22694054E+01
   0.75150   0.22523015E+01
   0.75250   0.22341261E+01
   0.75350   0.22150145E+01
   0.75450   0.21951921E+01
   0.75550   0.21749296E+01
   0.75650   0.21544909E+01
   0.75750   0.21340921E+01
   0.75850   0.21138732E+01
   0.75950   0.20938919E+01
   0.76050   0.20741298E+01
   0.76150   0.20545151E+01
   0.76250   0.20349457E+01
   0.76350   0.20153067E+01
   0.76450   0.19954729E+01
   0.76550   0.19752693E+01
   0.76650   0.19543097E+01
   0.76750   0.19312837E+01
   0.76850   0.18991491E+01
   0.76950   0.18303641E+01
   0.77050   0.17782738E+01
   0.77150   0.18341372E+01
   0.77250   0.18397119E+01
   0.77350   0.18225538E+01
   0.77450   0.18029541E+01
   0.77550   0.17818234E+01
   0.77650   0.17587260E+01
   0.77750   0.17331522E+01
   0.77850   0.17066473E+01
   0.77950   0.16911510E+01
   0.78050   0.18025565E+01
   0.78150   0.19959286E+01
   0.78250   0.20982835E+01
   0.78350   0.21257637E+01
   0.78450   0.20969355E+01
   0.78550   0.21360016E+01
   0.78650   0.22859421E+01
   0.78750   0.24667335E+01
   0.78850   0.25206225E+01
   0.78950   0.24581757E+01
   0.79050   0.24290993E+01
   0.79150   0.24751713E+01
   0.79250   0.25592165E+01
   0.79350   0.26251488E+01
   0.79450   0.26634099E+01
   0.79550   0.27016406E+01
   0.79650   0.27430229E+01
   0.79750   0.27527480E+01
   0.79850   0.27306783E+01
   0.79950   0.27206912E+01
   0.80050   0.27427802E+01
   0.80150   0.27890849E+01
   0.80250   0.28387640E+01
   0.80350   0.28561580E+01
   0.80450   0.28221276E+01
   0.80550   0.27701430E+01
   0.80650   0.27386725E+01
   0.80750   0.27363317E+01
   0.80850   0.27563560E+01
   0.80950   0.27912545E+01
   0.81050   0.28337905E+01
   0.81150   0.28716633E+01
   0.81250   0.28910377E+01
   0.81350   0.28905160E+01
   0.81450   0.28831024E+01
   0.81550   0.28821509E+01
   0.81650   0.28916261E+01
   0.81750   0.29070551E+01
   0.81850   0.29211454E+01
   0.81950   0.29292424E+01
   0.82050   0.29317331E+01
   0.82150   0.29325142E+01
   0.82250   0.29354889E+01
   0.82350   0.29417622E+01
   0.82450   0.29484198E+01
   0.82550   0.29478049E+01
   0.82650   0.29317756E+01
   0.82750   0.29063661E+01
   0.82850   0.28762879E+01
   0.82950   0.28441279E+01
   0.83050   0.28129792E+01
   0.83150   0.27853642E+01
   0.83250   0.27624426E+01
   0.83350   0.27438962E+01
   0.83450   0.27282913E+01
   0.83550   0.27136924E+01
   0.83650   0.26983423E+01
   0.83750   0.26811929E+01
   0.83850   0.26621170E+01
   0.83950   0.26417396E+01
   0.84050   0.26210356E+01
   0.84150   0.26009746E+01
   0.84250   0.25827637E+01
   0.84350   0.25692027E+01
   0.84450   0.25593045E+01
   0.84550   0.25481749E+01
   0.84650   0.25296252E+01
   0.84750   0.24548275E+01
   0.84850   0.23588846E+01
   0.84950   0.24703307E+01
   0.85050   0.24695289E+01
   0.85150   0.24549222E+01
   0.85250   0.24361117E+01
   0.85350   0.24150105E+01
   0.85450   0.23914518E+01
   0.85550   0.23630731E+01
   0.85650   0.23225527E+01
   0.85750   0.22494285E+01
   0.85850   0.21076107E+01
   0.85950   0.19870530E+01
   0.86050   0.20429029E+01
   0.86150   0.21153319E+01
   0.86250   0.21737795E+01
   0.86350   0.22786825E+01
   0.86450   0.22971320E+01
   0.86550   0.22627370E+01
   0.86650   0.22382815E+01
   0.86750   0.22095871E+01
   0.86850   0.21439757E+01
   0.86950   0.20129883E+01
   0.87050   0.20371928E+01
   0.87150   0.21449313E+01
   0.87250   0.22852972E+01
   0.87350   0.25288110E+01
   0.87450   0.26542692E+01
   0.87550   0.26826334E+01
   0.87650   0.27061603E+01
   0.87750   0.27720942E+01
   0.87850   0.28779948E+01
   0.87950   0.29710588E+01
   0.88050   0.30196612E+01
   0.88150   0.30338812E+01
   0.88250   0.30366707E+01
   0.88350   0.30333006E+01
   0.88450   0.30316486E+01
   0.88550   0.30492911E+01
   0.88650   0.30736399E+01
   0.88750   0.30449297E+01
   0.88850   0.29736760E+01
   0.88950   0.29288383E+01
   0.89050   0.29252334E+01
   0.89150   0.29484053E+01
   0.89250   0.29778678E+01
   0.89350   0.29934661E+01
   0.89450   0.29904547E+01
   0.89550   0.29827681E+01
   0.89650   0.29849072E+01
   0.89750   0.29975138E+01
   0.89850   0.30093310E+01
   0.89950   0.30100384E+01
   0.90050   0.29950957E+01
   0.90150   0.29692047E+01
   0.90250   0.29525833E+01
   0.90350   0.29451740E+01
   0.90450   0.29395216E+01
   0.90550   0.29301229E+01
   0.90650   0.29132998E+01
   0.90750   0.28879857E+01
   0.90850   0.28562832E+01
   0.90950   0.28225553E+01
   0.91050   0.27912171E+01
   0.91150   0.27641165E+01
   0.91250   0.27353537E+01
   0.91350   0.26650090E+01
   0.91450   0.25340049E+01
   0.91550   0.26005521E+01
   0.91650   0.26512599E+01
   0.91750   0.26741462E+01
   0.91850   0.26867144E+01
   0.91950   0.26954794E+01
   0.92050   0.27028632E+01
   0.92150   0.27089696E+01
   0.92250   0.27115417E+01
   0.92350   0.27049992E+01
   0.92450   0.26787384E+01
   0.92550   0.26157732E+01
   0.92650   0.25072968E+01
   0.92750   0.24546120E+01
   0.92850   0.25331099E+01
   0.92950   0.26029167E+01
   0.93050   0.26501551E+01
   0.93150   0.27011881E+01
   0.93250   0.27599456E+01
   0.93350   0.27816768E+01
   0.93450   0.27711272E+01
   0.93550   0.27487161E+01
   0.93650   0.26999977E+01
   0.93750   0.26477528E+01
   0.93850   0.26031661E+01
   0.93950   0.25636005E+01
   0.94050   0.25252197E+01
   0.94150   0.24874265E+01
   0.94250   0.24546590E+01
   0.94350   0.24331982E+01
   0.94450   0.24231992E+01
   0.94550   0.24211738E+01
   0.94650   0.24405856E+01
   0.94750   0.25239789E+01
   0.94850   0.26913626E+01
   0.94950   0.28326507E+01
   0.95050   0.28502331E+01
   0.95150   0.28399985E+01
   0.95250   0.28491688E+01
   0.95350   0.28515348E+01
   0.95450   0.27949874E+01
   0.95550   0.26847816E+01
   0.95650   0.25886204E+01
   0.95750   0.25238397E+01
   0.95850   0.24744689E+01
   0.95950   0.24303272E+01
   0.96050   0.23860931E+01
   0.96150   0.23399856E+01
   0.96250   0.22934000E+01
   0.96350   0.22503057E+01
   0.96450   0.22162409E+01
   0.96550   0.21984401E+01
   0.96650   0.22113101E+01
   0.96750   0.22939332E+01
   0.96850   0.24936252E+01
   0.96950   0.25254500E+01
   0.97050   0.23109162E+01
   0.97150   0.21676483E+01
   0.97250   0.20955942E+01
   0.97350   0.20625632E+01
   0.97450   0.20540657E+01
   0.97550   0.20613277E+01
   0.97650   0.20720158E+01
   0.97750   0.20741477E+01
   0.97850   0.20584311E+01
   0.97950   0.20236862E+01
   0.98050   0.19763336E+01
   0.98150   0.19231770E+01
   0.98250   0.18676971E+01
   0.98350   0.18110254E+01
   0.98450   0.17539707E+01
   0.98550   0.16978375E+01
   0.98650   0.16445237E+01
   0.98750   0.15971119E+01
   0.98850   0.15579733E+01
   0.98950   0.15167489E+01
   0.99050   0.14808936E+01
   0.99150   0.14656985E+01
   0.99250   0.14696691E+01
   0.99350   0.14841720E+01
   0.99450   0.14971280E+01
   0.99550   0.15058274E+01
   0.99650   0.15273451E+01
   0.99750   0.15689681E+01
   0.99850   0.16214105E+01
   0.99950   0.16557659E+01
