# Transmission, k-averaged
# Date: 2021-05-13
#   E [eV]           T [G0]
   0.00050   0.19525765E+00
   0.00150   0.10823507E+00
   0.00250   0.12569062E+00
   0.00350   0.21071075E-01
   0.00450   0.10068551E+00
   0.00550   0.13806535E+00
   0.00650   0.88784099E-01
   0.00750   0.43082703E-01
   0.00850   0.41698482E-01
   0.00950   0.62251326E-01
   0.01050   0.91695189E-01
   0.01150   0.35666708E-01
   0.01250   0.44493936E-02
   0.01350   0.24978792E-01
   0.01450   0.41454591E-01
   0.01550   0.22318998E-01
   0.01650   0.20819342E-01
   0.01750   0.50848566E-01
   0.01850   0.93664005E-01
   0.01950   0.97048851E-02
   0.02050   0.86122796E-01
   0.02150   0.10479346E-01
   0.02250   0.19301243E-01
   0.02350   0.18742550E-01
   0.02450   0.52288421E-02
   0.02550   0.15699644E-01
   0.02650   0.18109994E-01
   0.02750   0.41939355E-02
   0.02850   0.54328237E-02
   0.02950   0.45416996E-01
   0.03050   0.10297951E-01
   0.03150   0.39402540E-02
   0.03250   0.51607229E-02
   0.03350   0.30649722E-01
   0.03450   0.15957138E-01
   0.03550   0.41024671E-02
   0.03650   0.35187844E-02
   0.03750   0.82837092E-02
   0.03850   0.66575035E-01
   0.03950   0.69726747E-02
   0.04050   0.30643984E-02
   0.04150   0.33598882E-02
   0.04250   0.99117449E-02
   0.04350   0.36642678E-01
   0.04450   0.52925278E-02
   0.04550   0.28496599E-02
   0.04650   0.31645829E-02
   0.04750   0.56403033E-02
   0.04850   0.88052088E-02
   0.04950   0.52572610E-02
   0.05050   0.31116200E-02
   0.05150   0.26127405E-02
   0.05250   0.29941152E-02
   0.05350   0.41928790E-02
   0.05450   0.53023249E-02
   0.05550   0.44935797E-02
   0.05650   0.32967511E-02
   0.05750   0.27625205E-02
   0.05850   0.27988153E-02
   0.05950   0.33002289E-02
   0.06050   0.40157479E-02
   0.06150   0.41814651E-02
   0.06250   0.35689769E-02
   0.06350   0.29247196E-02
   0.06450   0.26118744E-02
   0.06550   0.26288810E-02
   0.06650   0.29060522E-02
   0.06750   0.32641552E-02
   0.06850   0.33476162E-02
   0.06950   0.30175063E-02
   0.07050   0.25764299E-02
   0.07150   0.22818667E-02
   0.07250   0.21893946E-02
   0.07350   0.22742099E-02
   0.07450   0.24643030E-02
   0.07550   0.26032648E-02
   0.07650   0.25222269E-02
   0.07750   0.22509007E-02
   0.07850   0.19685647E-02
   0.07950   0.17899858E-02
   0.08050   0.17398527E-02
   0.08150   0.18026067E-02
   0.08250   0.19288562E-02
   0.08350   0.20151173E-02
   0.08450   0.19522252E-02
   0.08550   0.17541798E-02
   0.08650   0.15392925E-02
   0.08750   0.13951658E-02
   0.08850   0.13490842E-02
   0.08950   0.13990954E-02
   0.09050   0.15168260E-02
   0.09150   0.15990579E-02
   0.09250   0.14595700E-02
   0.09350   0.11777758E-02
   0.09450   0.94458327E-03
   0.09550   0.79451478E-03
   0.09650   0.71076117E-03
   0.09750   0.67008630E-03
   0.09850   0.64801937E-03
   0.09950   0.61821641E-03
   0.10050   0.56275725E-03
   0.10150   0.48690554E-03
   0.10250   0.41167063E-03
   0.10350   0.35284614E-03
   0.10450   0.31466637E-03
   0.10550   0.29481796E-03
   0.10650   0.28856366E-03
   0.10750   0.28966006E-03
   0.10850   0.29077995E-03
   0.10950   0.28633903E-03
   0.11050   0.27628193E-03
   0.11150   0.26554553E-03
   0.11250   0.25972992E-03
   0.11350   0.26235168E-03
   0.11450   0.27471004E-03
   0.11550   0.29622260E-03
   0.11650   0.32415599E-03
   0.11750   0.35345554E-03
   0.11850   0.37826688E-03
   0.11950   0.39524987E-03
   0.12050   0.40570309E-03
   0.12150   0.41421474E-03
   0.12250   0.42571817E-03
   0.12350   0.44358231E-03
   0.12450   0.46899775E-03
   0.12550   0.50081097E-03
   0.12650   0.53553213E-03
   0.12750   0.56805619E-03
   0.12850   0.59361255E-03
   0.12950   0.61018317E-03
   0.13050   0.61951519E-03
   0.13150   0.62591309E-03
   0.13250   0.63404680E-03
   0.13350   0.64731529E-03
   0.13450   0.66713948E-03
   0.13550   0.69280149E-03
   0.13650   0.72158093E-03
   0.13750   0.74935204E-03
   0.13850   0.77188993E-03
   0.13950   0.78660768E-03
   0.14050   0.79374615E-03
   0.14150   0.79616893E-03
   0.14250   0.79798046E-03
   0.14350   0.80294657E-03
   0.14450   0.81343239E-03
   0.14550   0.82992797E-03
   0.14650   0.85096591E-03
   0.14750   0.87338773E-03
   0.14850   0.89312281E-03
   0.14950   0.90653589E-03
   0.15050   0.91190106E-03
   0.15150   0.91015297E-03
   0.15250   0.90439914E-03
   0.15350   0.89855015E-03
   0.15450   0.89589489E-03
   0.15550   0.89816144E-03
   0.15650   0.90511568E-03
   0.15750   0.91458648E-03
   0.15850   0.92294090E-03
   0.15950   0.92612836E-03
   0.16050   0.92115952E-03
   0.16150   0.90737530E-03
   0.16250   0.88669645E-03
   0.16350   0.86265930E-03
   0.16450   0.83888898E-03
   0.16550   0.81784092E-03
   0.16650   0.80018688E-03
   0.16750   0.78478578E-03
   0.16850   0.76910935E-03
   0.16950   0.75008033E-03
   0.17050   0.72520343E-03
   0.17150   0.69354480E-03
   0.17250   0.65588416E-03
   0.17350   0.61354676E-03
   0.17450   0.56535209E-03
   0.17550   0.50205149E-03
   0.17650   0.42777695E-03
   0.17750   0.36915066E-03
   0.17850   0.32534564E-03
   0.17950   0.29111761E-03
   0.18050   0.26341021E-03
   0.18150   0.24052066E-03
   0.18250   0.22146279E-03
   0.18350   0.20562865E-03
   0.18450   0.19260260E-03
   0.18550   0.18205910E-03
   0.18650   0.17370940E-03
   0.18750   0.16727672E-03
   0.18850   0.16248690E-03
   0.18950   0.15906749E-03
   0.19050   0.15675176E-03
   0.19150   0.15528694E-03
   0.19250   0.15444546E-03
   0.19350   0.15403773E-03
   0.19450   0.15392256E-03
   0.19550   0.15401203E-03
   0.19650   0.15426756E-03
   0.19750   0.15468746E-03
   0.19850   0.15528833E-03
   0.19950   0.15608476E-03
   0.20050   0.15707166E-03
   0.20150   0.15821296E-03
   0.20250   0.15943911E-03
   0.20350   0.16065421E-03
   0.20450   0.16175215E-03
   0.20550   0.16263861E-03
   0.20650   0.16325345E-03
   0.20750   0.16358713E-03
   0.20850   0.16368560E-03
   0.20950   0.16364206E-03
   0.21050   0.16357865E-03
   0.21150   0.16362368E-03
   0.21250   0.16389224E-03
   0.21350   0.16447596E-03
   0.21450   0.16544817E-03
   0.21550   0.16689053E-03
   0.21650   0.16892924E-03
   0.21750   0.17140442E-03
   0.21850   0.17263521E-03
   0.21950   0.17253050E-03
   0.22050   0.17211816E-03
   0.22150   0.17186304E-03
   0.22250   0.17201839E-03
   0.22350   0.17276296E-03
   0.22450   0.17422640E-03
   0.22550   0.17649210E-03
   0.22650   0.17960035E-03
   0.22750   0.18355981E-03
   0.22850   0.18836992E-03
   0.22950   0.19405565E-03
   0.23050   0.20071329E-03
   0.23150   0.20856029E-03
   0.23250   0.21795412E-03
   0.23350   0.22909301E-03
   0.23450   0.23910600E-03
   0.23550   0.23856641E-03
   0.23650   0.23194162E-03
   0.23750   0.22528300E-03
   0.23850   0.21951216E-03
   0.23950   0.21452218E-03
   0.24050   0.21009560E-03
   0.24150   0.20607242E-03
   0.24250   0.20237916E-03
   0.24350   0.19901720E-03
   0.24450   0.19603423E-03
   0.24550   0.19349169E-03
   0.24650   0.19143644E-03
   0.24750   0.18988208E-03
   0.24850   0.18880119E-03
   0.24950   0.18812777E-03
   0.25050   0.18776767E-03
   0.25150   0.18761423E-03
   0.25250   0.18756569E-03
   0.25350   0.18754075E-03
   0.25450   0.18748877E-03
   0.25550   0.18739242E-03
   0.25650   0.18726270E-03
   0.25750   0.18712816E-03
   0.25850   0.18702146E-03
   0.25950   0.18696682E-03
   0.26050   0.18697060E-03
   0.26150   0.18701678E-03
   0.26250   0.18706740E-03
   0.26350   0.18706745E-03
   0.26450   0.18695273E-03
   0.26550   0.18665940E-03
   0.26650   0.18613278E-03
   0.26750   0.18533423E-03
   0.26850   0.18424436E-03
   0.26950   0.18286258E-03
   0.27050   0.18120318E-03
   0.27150   0.17928939E-03
   0.27250   0.17714662E-03
   0.27350   0.17479675E-03
   0.27450   0.17225390E-03
   0.27550   0.16952275E-03
   0.27650   0.16659901E-03
   0.27750   0.16347191E-03
   0.27850   0.16012810E-03
   0.27950   0.15655610E-03
   0.28050   0.15275067E-03
   0.28150   0.14871641E-03
   0.28250   0.14446990E-03
   0.28350   0.14004039E-03
   0.28450   0.13546878E-03
   0.28550   0.13080551E-03
   0.28650   0.12610746E-03
   0.28750   0.12143485E-03
   0.28850   0.11684826E-03
   0.28950   0.11240634E-03
   0.29050   0.10816415E-03
   0.29150   0.10417194E-03
   0.29250   0.10047359E-03
   0.29350   0.97103301E-04
   0.29450   0.94076771E-04
   0.29550   0.91367539E-04
   0.29650   0.88836736E-04
   0.29750   0.85988264E-04
   0.29850   0.81080012E-04
   0.29950   0.71972165E-04
   0.30050   0.63445899E-04
   0.30150   0.57530553E-04
   0.30250   0.53468502E-04
   0.30350   0.50652096E-04
   0.30450   0.48705300E-04
   0.30550   0.47382673E-04
   0.30650   0.46513160E-04
   0.30750   0.45971436E-04
   0.30850   0.45662608E-04
   0.30950   0.45513552E-04
   0.31050   0.45467634E-04
   0.31150   0.45481182E-04
   0.31250   0.45520996E-04
   0.31350   0.45562352E-04
   0.31450   0.45587363E-04
   0.31550   0.45583580E-04
   0.31650   0.45542809E-04
   0.31750   0.45460099E-04
   0.31850   0.45332938E-04
   0.31950   0.45160592E-04
   0.32050   0.44943630E-04
   0.32150   0.44683547E-04
   0.32250   0.44382508E-04
   0.32350   0.44043165E-04
   0.32450   0.43668519E-04
   0.32550   0.43261811E-04
   0.32650   0.42826439E-04
   0.32750   0.42365860E-04
   0.32850   0.41883508E-04
   0.32950   0.41382693E-04
   0.33050   0.40866511E-04
   0.33150   0.40337760E-04
   0.33250   0.39798841E-04
   0.33350   0.39251692E-04
   0.33450   0.38697730E-04
   0.33550   0.38137812E-04
   0.33650   0.37572197E-04
   0.33750   0.37000569E-04
   0.33850   0.36422010E-04
   0.33950   0.35835077E-04
   0.34050   0.35237794E-04
   0.34150   0.34627734E-04
   0.34250   0.34002056E-04
   0.34350   0.33357574E-04
   0.34450   0.32690801E-04
   0.34550   0.31998035E-04
   0.34650   0.31275387E-04
   0.34750   0.30518895E-04
   0.34850   0.29724559E-04
   0.34950   0.28888495E-04
   0.35050   0.28007051E-04
   0.35150   0.27077025E-04
   0.35250   0.26095946E-04
   0.35350   0.25062445E-04
   0.35450   0.23976774E-04
   0.35550   0.22841443E-04
   0.35650   0.21662039E-04
   0.35750   0.20448233E-04
   0.35850   0.19215022E-04
   0.35950   0.17984492E-04
   0.36050   0.16789099E-04
   0.36150   0.15681648E-04
   0.36250   0.14771315E-04
   0.36350   0.14191554E-04
   0.36450   0.13921619E-04
   0.36550   0.13970618E-04
   0.36650   0.14371441E-04
   0.36750   0.15148459E-04
   0.36850   0.16316359E-04
   0.36950   0.17882014E-04
   0.37050   0.19847013E-04
   0.37150   0.22210810E-04
   0.37250   0.24974470E-04
   0.37350   0.28145092E-04
   0.37450   0.31741070E-04
   0.37550   0.35798799E-04
   0.37650   0.40382107E-04
   0.37750   0.45596942E-04
   0.37850   0.51616185E-04
   0.37950   0.58721835E-04
   0.38050   0.67346395E-04
   0.38150   0.77651028E-04
   0.38250   0.86147396E-04
   0.38350   0.89739107E-04
   0.38450   0.91348156E-04
   0.38550   0.92288974E-04
   0.38650   0.92907096E-04
   0.38750   0.93314651E-04
   0.38850   0.93556890E-04
   0.38950   0.93655835E-04
   0.39050   0.93624090E-04
   0.39150   0.93469978E-04
   0.39250   0.93199553E-04
   0.39350   0.92817558E-04
   0.39450   0.92327820E-04
   0.39550   0.91733462E-04
   0.39650   0.91036942E-04
   0.39750   0.90240093E-04
   0.39850   0.89344030E-04
   0.39950   0.88349079E-04
   0.40050   0.87254681E-04
   0.40150   0.86059234E-04
   0.40250   0.84759908E-04
   0.40350   0.83352461E-04
   0.40450   0.81830949E-04
   0.40550   0.80187296E-04
   0.40650   0.78410674E-04
   0.40750   0.76486293E-04
   0.40850   0.74393043E-04
   0.40950   0.72098235E-04
   0.41050   0.69544833E-04
   0.41150   0.66615568E-04
   0.41250   0.63014064E-04
   0.41350   0.57813017E-04
   0.41450   0.49053462E-04
   0.41550   0.39364200E-04
   0.41650   0.31905209E-04
   0.41750   0.26214195E-04
   0.41850   0.21712045E-04
   0.41950   0.18061359E-04
   0.42050   0.15065274E-04
   0.42150   0.12603698E-04
   0.42250   0.10599925E-04
   0.42350   0.90018502E-05
   0.42450   0.77702753E-05
   0.42550   0.68710701E-05
   0.42650   0.62699210E-05
   0.42750   0.59292693E-05
   0.42850   0.58073397E-05
   0.42950   0.58590440E-05
   0.43050   0.60382949E-05
   0.43150   0.63009970E-05
   0.43250   0.66079233E-05
   0.43350   0.69268340E-05
   0.43450   0.72335156E-05
   0.43550   0.75117355E-05
   0.43650   0.77523619E-05
   0.43750   0.79519868E-05
   0.43850   0.81113840E-05
   0.43950   0.82340375E-05
   0.44050   0.83248906E-05
   0.44150   0.83893729E-05
   0.44250   0.84327048E-05
   0.44350   0.84594458E-05
   0.44450   0.84732519E-05
   0.44550   0.84767789E-05
   0.44650   0.84717085E-05
   0.44750   0.84588464E-05
   0.44850   0.84382627E-05
   0.44950   0.84094690E-05
   0.45050   0.83715822E-05
   0.45150   0.83234945E-05
   0.45250   0.82640099E-05
   0.45350   0.81919579E-05
   0.45450   0.81062817E-05
   0.45550   0.80060890E-05
   0.45650   0.78906733E-05
   0.45750   0.77595159E-05
   0.45850   0.76122619E-05
   0.45950   0.74486802E-05
   0.46050   0.72686157E-05
   0.46150   0.70719339E-05
   0.46250   0.68584654E-05
   0.46350   0.66279567E-05
   0.46450   0.63800335E-05
   0.46550   0.61141877E-05
   0.46650   0.58298042E-05
   0.46750   0.55262531E-05
   0.46850   0.52030855E-05
   0.46950   0.48603943E-05
   0.47050   0.44994149E-05
   0.47150   0.41234521E-05
   0.47250   0.37391790E-05
   0.47350   0.33582003E-05
   0.47450   0.29984180E-05
   0.47550   0.26841760E-05
   0.47650   0.24436840E-05
   0.47750   0.23026421E-05
   0.47850   0.22751965E-05
   0.47950   0.23565578E-05
   0.48050   0.25224888E-05
   0.48150   0.27368762E-05
   0.48250   0.29628793E-05
   0.48350   0.31715201E-05
   0.48450   0.33448755E-05
   0.48550   0.34749305E-05
   0.48650   0.35605813E-05
   0.48750   0.36046506E-05
   0.48850   0.36116940E-05
   0.48950   0.35866592E-05
   0.49050   0.35341920E-05
   0.49150   0.34583438E-05
   0.49250   0.33625029E-05
   0.49350   0.32494265E-05
   0.49450   0.31212962E-05
   0.49550   0.29797320E-05
   0.49650   0.28256902E-05
   0.49750   0.26594198E-05
   0.49850   0.24856197E-05
   0.49950   0.23243572E-05
   0.50050   0.21801739E-05
   0.50150   0.20489301E-05
   0.50250   0.19287056E-05
   0.50350   0.18184434E-05
   0.50450   0.17172289E-05
   0.50550   0.16240572E-05
   0.50650   0.15377530E-05
   0.50750   0.14569371E-05
   0.50850   0.13800042E-05
   0.50950   0.13050902E-05
   0.51050   0.12300241E-05
   0.51150   0.11522657E-05
   0.51250   0.10688896E-05
   0.51350   0.97681357E-06
   0.51450   0.87387036E-06
   0.51550   0.76190724E-06
   0.51650   0.65224810E-06
   0.51750   0.56716209E-06
   0.51850   0.52654514E-06
   0.51950   0.53485968E-06
   0.52050   0.57868073E-06
   0.52150   0.58511267E-06
   0.52250   0.60723903E-06
   0.52350   0.72125431E-06
   0.52450   0.92908630E-06
   0.52550   0.12259328E-05
   0.52650   0.16117352E-05
   0.52750   0.20918990E-05
   0.52850   0.26775465E-05
   0.52950   0.33860708E-05
   0.53050   0.42402130E-05
   0.53150   0.52527507E-05
   0.53250   0.63002658E-05
   0.53350   0.66398788E-05
   0.53450   0.61216165E-05
   0.53550   0.55524338E-05
   0.53650   0.50845110E-05
   0.53750   0.46974114E-05
   0.53850   0.43614473E-05
   0.53950   0.40531645E-05
   0.54050   0.37727473E-05
   0.54150   0.36276003E-05
   0.54250   0.36883903E-05
   0.54350   0.36720464E-05
   0.54450   0.35631308E-05
   0.54550   0.34330667E-05
   0.54650   0.33051981E-05
   0.54750   0.31846257E-05
   0.54850   0.30718313E-05
   0.54950   0.29662331E-05
   0.55050   0.28670866E-05
   0.55150   0.27737058E-05
   0.55250   0.26855059E-05
   0.55350   0.26019961E-05
   0.55450   0.25227619E-05
   0.55550   0.24474482E-05
   0.55650   0.23757464E-05
   0.55750   0.23073824E-05
   0.55850   0.22421091E-05
   0.55950   0.21796991E-05
   0.56050   0.21199410E-05
   0.56150   0.20626362E-05
   0.56250   0.20075961E-05
   0.56350   0.19546417E-05
   0.56450   0.19036015E-05
   0.56550   0.18543128E-05
   0.56650   0.18066211E-05
   0.56750   0.17603804E-05
   0.56850   0.17154548E-05
   0.56950   0.16717183E-05
   0.57050   0.16290566E-05
   0.57150   0.15873674E-05
   0.57250   0.15465617E-05
   0.57350   0.15065648E-05
   0.57450   0.14673167E-05
   0.57550   0.14287733E-05
   0.57650   0.13909066E-05
   0.57750   0.13537061E-05
   0.57850   0.13171783E-05
   0.57950   0.12813487E-05
   0.58050   0.12462609E-05
   0.58150   0.12119788E-05
   0.58250   0.11785866E-05
   0.58350   0.11461902E-05
   0.58450   0.11149190E-05
   0.58550   0.10849267E-05
   0.58650   0.10563947E-05
   0.58750   0.10295342E-05
   0.58850   0.10045901E-05
   0.58950   0.98184501E-06
   0.59050   0.96162466E-06
   0.59150   0.94430493E-06
   0.59250   0.93031929E-06
   0.59350   0.92016904E-06
   0.59450   0.91443559E-06
   0.59550   0.91379513E-06
   0.59650   0.91903757E-06
   0.59750   0.93108946E-06
   0.59850   0.95104303E-06
   0.59950   0.98019279E-06
   0.60050   0.10200823E-05
   0.60150   0.10725641E-05
   0.60250   0.11398779E-05
   0.60350   0.12247540E-05
   0.60450   0.13305516E-05
   0.60550   0.14614474E-05
   0.60650   0.16226974E-05
   0.60750   0.18210087E-05
   0.60850   0.20650821E-05
   0.60950   0.23664245E-05
   0.61050   0.27406145E-05
   0.61150   0.32093535E-05
   0.61250   0.38039641E-05
   0.61350   0.45717356E-05
   0.61450   0.55883124E-05
   0.61550   0.69838434E-05
   0.61650   0.89992891E-05
   0.61750   0.12024168E-04
   0.61850   0.15562422E-04
   0.61950   0.17799013E-04
   0.62050   0.19133338E-04
   0.62150   0.20091878E-04
   0.62250   0.20873038E-04
   0.62350   0.21575124E-04
   0.62450   0.22228178E-04
   0.62550   0.22844519E-04
   0.62650   0.23435012E-04
   0.62750   0.24007786E-04
   0.62850   0.24568859E-04
   0.62950   0.25122830E-04
   0.63050   0.25673362E-04
   0.63150   0.26223495E-04
   0.63250   0.26775835E-04
   0.63350   0.27332704E-04
   0.63450   0.27896220E-04
   0.63550   0.28468370E-04
   0.63650   0.29051054E-04
   0.63750   0.29646117E-04
   0.63850   0.30255373E-04
   0.63950   0.30880630E-04
   0.64050   0.31523698E-04
   0.64150   0.32186399E-04
   0.64250   0.32870579E-04
   0.64350   0.33578119E-04
   0.64450   0.34310928E-04
   0.64550   0.35070956E-04
   0.64650   0.35860208E-04
   0.64750   0.36680733E-04
   0.64850   0.37534639E-04
   0.64950   0.38424099E-04
   0.65050   0.39351358E-04
   0.65150   0.40318748E-04
   0.65250   0.41328691E-04
   0.65350   0.42383723E-04
   0.65450   0.43486503E-04
   0.65550   0.44639841E-04
   0.65650   0.45846708E-04
   0.65750   0.47110279E-04
   0.65850   0.48433962E-04
   0.65950   0.49821425E-04
   0.66050   0.51276660E-04
   0.66150   0.52804011E-04
   0.66250   0.54408258E-04
   0.66350   0.56094668E-04
   0.66450   0.57869100E-04
   0.66550   0.59738086E-04
   0.66650   0.61708961E-04
   0.66750   0.63790016E-04
   0.66850   0.65990644E-04
   0.66950   0.68321584E-04
   0.67050   0.70795169E-04
   0.67150   0.73425646E-04
   0.67250   0.76229626E-04
   0.67350   0.79226556E-04
   0.67450   0.82439452E-04
   0.67550   0.85895794E-04
   0.67650   0.89628695E-04
   0.67750   0.93678573E-04
   0.67850   0.98095363E-04
   0.67950   0.10294170E-03
   0.68050   0.10829735E-03
   0.68150   0.11426550E-03
   0.68250   0.12098108E-03
   0.68350   0.12861869E-03
   0.68450   0.13738168E-03
   0.68550   0.14734677E-03
   0.68650   0.15723135E-03
   0.68750   0.15938924E-03
   0.68850   0.15160088E-03
   0.68950   0.14284292E-03
   0.69050   0.13530582E-03
   0.69150   0.12898671E-03
   0.69250   0.12367273E-03
   0.69350   0.11918341E-03
   0.69450   0.11538814E-03
   0.69550   0.11219717E-03
   0.69650   0.10955298E-03
   0.69750   0.10742524E-03
   0.69850   0.10580963E-03
   0.69950   0.10473090E-03
   0.70050   0.10425247E-03
   0.70150   0.10449754E-03
   0.70250   0.10569522E-03
   0.70350   0.10828082E-03
   0.70450   0.11301612E-03
   0.70550   0.11943222E-03
   0.70650   0.12268077E-03
   0.70750   0.12298531E-03
   0.70850   0.12220933E-03
   0.70950   0.12105326E-03
   0.71050   0.11978859E-03
   0.71150   0.11853945E-03
   0.71250   0.11737042E-03
   0.71350   0.11631865E-03
   0.71450   0.11540745E-03
   0.71550   0.11465274E-03
   0.71650   0.11406640E-03
   0.71750   0.11365800E-03
   0.71850   0.11343596E-03
   0.71950   0.11340811E-03
   0.72050   0.11358214E-03
   0.72150   0.11396590E-03
   0.72250   0.11456764E-03
   0.72350   0.11539624E-03
   0.72450   0.11646153E-03
   0.72550   0.11777471E-03
   0.72650   0.11934918E-03
   0.72750   0.12120209E-03
   0.72850   0.12335779E-03
   0.72950   0.12585682E-03
   0.73050   0.12878454E-03
   0.73150   0.13238506E-03
   0.73250   0.13737129E-03
   0.73350   0.14385484E-03
   0.73450   0.15090984E-03
   0.73550   0.15837561E-03
   0.73650   0.16629197E-03
   0.73750   0.17469763E-03
   0.73850   0.18362238E-03
   0.73950   0.19309255E-03
   0.74050   0.20313545E-03
   0.74150   0.21378287E-03
   0.74250   0.22507399E-03
   0.74350   0.23705832E-03
   0.74450   0.24979885E-03
   0.74550   0.26337561E-03
   0.74650   0.27789068E-03
   0.74750   0.29347462E-03
   0.74850   0.31029625E-03
   0.74950   0.32857846E-03
   0.75050   0.34862504E-03
   0.75150   0.37087218E-03
   0.75250   0.39599685E-03
   0.75350   0.42517757E-03
   0.75450   0.46083680E-03
   0.75550   0.50930749E-03
   0.75650   0.59458305E-03
   0.75750   0.89951261E-03
   0.75850   0.11606336E-01
   0.75950   0.21834457E-02
   0.76050   0.88126975E-03
   0.76150   0.31535013E-02
   0.76250   0.11534470E-02
   0.76350   0.10358440E-02
   0.76450   0.97865867E-03
   0.76550   0.83038514E-03
   0.76650   0.75952732E-03
   0.76750   0.14376868E-02
   0.76850   0.42924755E-02
   0.76950   0.11023135E+00
   0.77050   0.34466553E-01
   0.77150   0.39207134E-01
   0.77250   0.22564416E+00
   0.77350   0.20537697E-01
   0.77450   0.11856238E-01
   0.77550   0.13532357E-01
   0.77650   0.22581138E-01
   0.77750   0.11216640E+00
   0.77850   0.71962439E-01
   0.77950   0.21504453E+00
   0.78050   0.47127274E+00
   0.78150   0.49624333E+00
   0.78250   0.41376945E+00
   0.78350   0.55288255E+00
   0.78450   0.43732566E+00
   0.78550   0.39259529E+00
   0.78650   0.35819545E+00
   0.78750   0.41637185E+00
   0.78850   0.29377055E+00
   0.78950   0.29064062E+00
   0.79050   0.31089914E+00
   0.79150   0.26942816E+00
   0.79250   0.23725976E+00
   0.79350   0.29143822E+00
   0.79450   0.33663180E+00
   0.79550   0.30140725E+00
   0.79650   0.26462680E+00
   0.79750   0.29386574E+00
   0.79850   0.23524138E+00
   0.79950   0.23928930E+00
   0.80050   0.25228313E+00
   0.80150   0.30903855E+00
   0.80250   0.39456502E+00
   0.80350   0.33743995E+00
   0.80450   0.28271282E+00
   0.80550   0.27891713E+00
   0.80650   0.28693771E+00
   0.80750   0.31725988E+00
   0.80850   0.37466991E+00
   0.80950   0.35988906E+00
   0.81050   0.36740062E+00
   0.81150   0.37465280E+00
   0.81250   0.42666814E+00
   0.81350   0.44587675E+00
   0.81450   0.48460147E+00
   0.81550   0.45095924E+00
   0.81650   0.39256522E+00
   0.81750   0.36316812E+00
   0.81850   0.39333534E+00
   0.81950   0.47524607E+00
   0.82050   0.45643619E+00
   0.82150   0.49070382E+00
   0.82250   0.51564336E+00
   0.82350   0.56186056E+00
   0.82450   0.71488851E+00
   0.82550   0.75625455E+00
   0.82650   0.68211794E+00
   0.82750   0.61024040E+00
   0.82850   0.47668576E+00
   0.82950   0.35840732E+00
   0.83050   0.24113147E+00
   0.83150   0.27684548E+00
   0.83250   0.23655778E+00
   0.83350   0.17624120E+00
   0.83450   0.19882332E+00
   0.83550   0.24535200E+00
   0.83650   0.22208282E+00
   0.83750   0.18841211E+00
   0.83850   0.18132564E+00
   0.83950   0.17886177E+00
   0.84050   0.16392851E+00
   0.84150   0.14214969E+00
   0.84250   0.12192156E+00
   0.84350   0.10363820E+00
   0.84450   0.88572592E-01
   0.84550   0.78133985E-01
   0.84650   0.71965337E-01
   0.84750   0.69207683E-01
   0.84850   0.68335705E-01
   0.84950   0.67531243E-01
   0.85050   0.65953381E-01
   0.85150   0.63228168E-01
   0.85250   0.59622649E-01
   0.85350   0.55746537E-01
   0.85450   0.51997267E-01
   0.85550   0.48351280E-01
   0.85650   0.44566061E-01
   0.85750   0.40503196E-01
   0.85850   0.36266934E-01
   0.85950   0.32083567E-01
   0.86050   0.28122004E-01
   0.86150   0.24438759E-01
   0.86250   0.21034792E-01
   0.86350   0.17924804E-01
   0.86450   0.15155006E-01
   0.86550   0.12772793E-01
   0.86650   0.10792303E-01
   0.86750   0.91868034E-02
   0.86850   0.79040257E-02
   0.86950   0.68864496E-02
   0.87050   0.60852971E-02
   0.87150   0.54664449E-02
   0.87250   0.50111325E-02
   0.87350   0.47153877E-02
   0.87450   0.45905486E-02
   0.87550   0.46651824E-02
   0.87650   0.50043943E-02
   0.87750   0.56359139E-02
   0.87850   0.57114135E-02
   0.87950   0.57291295E-02
   0.88050   0.64709974E-02
   0.88150   0.74666082E-02
   0.88250   0.72703520E-02
   0.88350   0.38356164E-02
   0.88450   0.27735862E-02
   0.88550   0.25452618E-02
   0.88650   0.24968234E-02
   0.88750   0.24961911E-02
   0.88850   0.25084815E-02
   0.88950   0.25216774E-02
   0.89050   0.25308363E-02
   0.89150   0.25338302E-02
   0.89250   0.25298945E-02
   0.89350   0.25190078E-02
   0.89450   0.25015846E-02
   0.89550   0.24783155E-02
   0.89650   0.24500825E-02
   0.89750   0.24179020E-02
   0.89850   0.23828461E-02
   0.89950   0.23458637E-02
   0.90050   0.23068625E-02
   0.90150   0.22578731E-02
   0.90250   0.21799724E-02
   0.90350   0.20940979E-02
   0.90450   0.20233602E-02
   0.90550   0.19665284E-02
   0.90650   0.19211023E-02
   0.90750   0.18857587E-02
   0.90850   0.18598760E-02
   0.90950   0.18431870E-02
   0.91050   0.18355852E-02
   0.91150   0.18370140E-02
   0.91250   0.18474001E-02
   0.91350   0.18666157E-02
   0.91450   0.18944589E-02
   0.91550   0.19306473E-02
   0.91650   0.19748220E-02
   0.91750   0.20265556E-02
   0.91850   0.20853614E-02
   0.91950   0.21507023E-02
   0.92050   0.22219915E-02
   0.92150   0.22985931E-02
   0.92250   0.23798142E-02
   0.92350   0.24649007E-02
   0.92450   0.25530348E-02
   0.92550   0.26433428E-02
   0.92650   0.27349140E-02
   0.92750   0.28268339E-02
   0.92850   0.29182285E-02
   0.92950   0.30083137E-02
   0.93050   0.30964436E-02
   0.93150   0.31821497E-02
   0.93250   0.32651681E-02
   0.93350   0.33454488E-02
   0.93450   0.34231553E-02
   0.93550   0.34986562E-02
   0.93650   0.35725227E-02
   0.93750   0.36455377E-02
   0.93850   0.37187277E-02
   0.93950   0.37934126E-02
   0.94050   0.38712714E-02
   0.94150   0.39544124E-02
   0.94250   0.40454245E-02
   0.94350   0.41473666E-02
   0.94450   0.42633875E-02
   0.94550   0.43959687E-02
   0.94650   0.45482353E-02
   0.94750   0.47227531E-02
   0.94850   0.49215602E-02
   0.94950   0.51465225E-02
   0.95050   0.53994153E-02
   0.95150   0.56822607E-02
   0.95250   0.59980508E-02
   0.95350   0.63523198E-02
   0.95450   0.67580054E-02
   0.95550   0.72515123E-02
   0.95650   0.78610787E-02
   0.95750   0.85550155E-02
   0.95850   0.93349246E-02
   0.95950   0.10214604E-01
   0.96050   0.11204425E-01
   0.96150   0.12308403E-01
   0.96250   0.13523236E-01
   0.96350   0.14839577E-01
   0.96450   0.16246604E-01
   0.96550   0.17739868E-01
   0.96650   0.19330526E-01
   0.96750   0.21052361E-01
   0.96850   0.22963226E-01
   0.96950   0.25140058E-01
   0.97050   0.27671257E-01
   0.97150   0.30656017E-01
   0.97250   0.34224641E-01
   0.97350   0.38591724E-01
   0.97450   0.44139910E-01
   0.97550   0.51457427E-01
   0.97650   0.61145291E-01
   0.97750   0.73727012E-01
   0.97850   0.88170543E-01
   0.97950   0.99656001E-01
   0.98050   0.10273746E+00
   0.98150   0.99303469E-01
   0.98250   0.95273264E-01
   0.98350   0.94244644E-01
   0.98450   0.98000467E-01
   0.98550   0.10747055E+00
   0.98650   0.12254972E+00
   0.98750   0.14179489E+00
   0.98850   0.16226861E+00
   0.98950   0.18024121E+00
   0.99050   0.19364528E+00
   0.99150   0.20469671E+00
   0.99250   0.24243920E+00
   0.99350   0.26106915E+00
   0.99450   0.29052624E+00
   0.99550   0.39430526E+00
   0.99650   0.37704182E+00
   0.99750   0.30299860E+00
   0.99850   0.30471301E+00
   0.99950   0.31070876E+00
