# Transmission, k-averaged
# Date: 2021-05-13
#   E [eV]           T [G0]
   0.00050   0.11780886E-01
   0.00150   0.11991002E-01
   0.00250   0.44051097E-02
   0.00350   0.14730061E-02
   0.00450   0.13367095E-01
   0.00550   0.68381196E-03
   0.00650   0.17265993E-02
   0.00750   0.11196292E-02
   0.00850   0.31138089E-03
   0.00950   0.79659018E-03
   0.01050   0.32876101E-02
   0.01150   0.31533526E-03
   0.01250   0.23525907E-03
   0.01350   0.57451939E-03
   0.01450   0.47149262E-02
   0.01550   0.44140196E-03
   0.01650   0.19837546E-03
   0.01750   0.20084564E-03
   0.01850   0.41202709E-03
   0.01950   0.15219942E-02
   0.02050   0.53642696E-03
   0.02150   0.19849818E-03
   0.02250   0.13635073E-03
   0.02350   0.14466039E-03
   0.02450   0.22503869E-03
   0.02550   0.43417327E-03
   0.02650   0.39307130E-03
   0.02750   0.18622362E-03
   0.02850   0.10964415E-03
   0.02950   0.86508939E-04
   0.03050   0.87495660E-04
   0.03150   0.10842107E-03
   0.03250   0.14718804E-03
   0.03350   0.16209189E-03
   0.03450   0.11972184E-03
   0.03550   0.78287805E-04
   0.03650   0.56703691E-04
   0.03750   0.47790028E-04
   0.03850   0.46492263E-04
   0.03950   0.50611223E-04
   0.04050   0.57449713E-04
   0.04150   0.59628768E-04
   0.04250   0.50565952E-04
   0.04350   0.36469257E-04
   0.04450   0.24474290E-04
   0.04550   0.15472930E-04
   0.04650   0.10282130E-04
   0.04750   0.74916202E-05
   0.04850   0.57670359E-05
   0.04950   0.45455695E-05
   0.05050   0.35977757E-05
   0.05150   0.28365575E-05
   0.05250   0.22300621E-05
   0.05350   0.17588062E-05
   0.05450   0.14011584E-05
   0.05550   0.11335156E-05
   0.05650   0.93384818E-06
   0.05750   0.78384375E-06
   0.05850   0.66929897E-06
   0.05950   0.57962632E-06
   0.06050   0.50715954E-06
   0.06150   0.44654854E-06
   0.06250   0.39427701E-06
   0.06350   0.34823876E-06
   0.06450   0.30732102E-06
   0.06550   0.27100654E-06
   0.06650   0.23904659E-06
   0.06750   0.21124637E-06
   0.06850   0.18736252E-06
   0.06950   0.16707921E-06
   0.07050   0.15002358E-06
   0.07150   0.13579161E-06
   0.07250   0.12397028E-06
   0.07350   0.11415352E-06
   0.07450   0.10595417E-06
   0.07550   0.99015033E-07
   0.07650   0.93020567E-07
   0.07750   0.87708067E-07
   0.07850   0.82875800E-07
   0.07950   0.78385547E-07
   0.08050   0.74158926E-07
   0.08150   0.70168674E-07
   0.08250   0.66427305E-07
   0.08350   0.62975587E-07
   0.08450   0.59872406E-07
   0.08550   0.57186412E-07
   0.08650   0.54989005E-07
   0.08750   0.53347218E-07
   0.08850   0.52312245E-07
   0.08950   0.51886232E-07
   0.09050   0.51874313E-07
   0.09150   0.51068696E-07
   0.09250   0.45753858E-07
   0.09350   0.37972200E-07
   0.09450   0.31602724E-07
   0.09550   0.26658794E-07
   0.09650   0.22707244E-07
   0.09750   0.19446359E-07
   0.09850   0.16690498E-07
   0.09950   0.14328093E-07
   0.10050   0.12292762E-07
   0.10150   0.10544655E-07
   0.10250   0.90581702E-08
   0.10350   0.78138154E-08
   0.10450   0.67929982E-08
   0.10550   0.59750618E-08
   0.10650   0.53360685E-08
   0.10750   0.48489079E-08
   0.10850   0.44843058E-08
   0.10950   0.42123474E-08
   0.11050   0.40041597E-08
   0.11150   0.38334989E-08
   0.11250   0.36780508E-08
   0.11350   0.35203478E-08
   0.11450   0.33482648E-08
   0.11550   0.31550977E-08
   0.11650   0.29392575E-08
   0.11750   0.27036322E-08
   0.11850   0.24546847E-08
   0.11950   0.22013646E-08
   0.12050   0.19539281E-08
   0.12150   0.17227606E-08
   0.12250   0.15172992E-08
   0.12350   0.13451397E-08
   0.12450   0.12113877E-08
   0.12550   0.11182886E-08
   0.12650   0.10651421E-08
   0.12750   0.10484780E-08
   0.12850   0.10624532E-08
   0.12950   0.10994154E-08
   0.13050   0.11505740E-08
   0.13150   0.12067222E-08
   0.13250   0.12589535E-08
   0.13350   0.12993265E-08
   0.13450   0.13214327E-08
   0.13550   0.13208361E-08
   0.13650   0.12953548E-08
   0.13750   0.12451711E-08
   0.13850   0.11727634E-08
   0.13950   0.10826704E-08
   0.14050   0.98110586E-09
   0.14150   0.87545793E-09
   0.14250   0.77371043E-09
   0.14350   0.68382988E-09
   0.14450   0.61316147E-09
   0.14550   0.56787214E-09
   0.14650   0.55247523E-09
   0.14750   0.56946264E-09
   0.14850   0.61906419E-09
   0.14950   0.69914874E-09
   0.15050   0.80527374E-09
   0.15150   0.93088676E-09
   0.15250   0.10676759E-08
   0.15350   0.12060601E-08
   0.15450   0.13358040E-08
   0.15550   0.14467330E-08
   0.15650   0.15295198E-08
   0.15750   0.15765051E-08
   0.15850   0.15825093E-08
   0.15950   0.15455902E-08
   0.16050   0.14676963E-08
   0.16150   0.13551634E-08
   0.16250   0.12189957E-08
   0.16350   0.10748658E-08
   0.16450   0.94276353E-09
   0.16550   0.84620744E-09
   0.16650   0.81093188E-09
   0.16750   0.86295654E-09
   0.16850   0.10259519E-08
   0.16950   0.13178147E-08
   0.17050   0.17463354E-08
   0.17150   0.23036428E-08
   0.17250   0.29582747E-08
   0.17350   0.36402250E-08
   0.17450   0.41987507E-08
   0.17550   0.42945651E-08
   0.17650   0.38144838E-08
   0.17750   0.32879606E-08
   0.17850   0.28245206E-08
   0.17950   0.24003486E-08
   0.18050   0.20059292E-08
   0.18150   0.16451395E-08
   0.18250   0.13286984E-08
   0.18350   0.10696815E-08
   0.18450   0.88029062E-09
   0.18550   0.76943224E-09
   0.18650   0.74102602E-09
   0.18750   0.79309836E-09
   0.18850   0.91769309E-09
   0.18950   0.11015515E-08
   0.19050   0.13274138E-08
   0.19150   0.15757196E-08
   0.19250   0.18264477E-08
   0.19350   0.20608535E-08
   0.19450   0.22629107E-08
   0.19550   0.24203399E-08
   0.19650   0.25251785E-08
   0.19750   0.25739184E-08
   0.19850   0.25672753E-08
   0.19950   0.25096800E-08
   0.20050   0.24085898E-08
   0.20150   0.22737041E-08
   0.20250   0.21161612E-08
   0.20350   0.19477631E-08
   0.20450   0.17802723E-08
   0.20550   0.16247955E-08
   0.20650   0.14912693E-08
   0.20750   0.13880466E-08
   0.20850   0.13215833E-08
   0.20950   0.12962186E-08
   0.21050   0.13140411E-08
   0.21150   0.13748318E-08
   0.21250   0.14760713E-08
   0.21350   0.16129920E-08
   0.21450   0.17786289E-08
   0.21550   0.19637179E-08
   0.21650   0.21556434E-08
   0.21750   0.23317515E-08
   0.21850   0.24590505E-08
   0.21950   0.25435372E-08
   0.22050   0.26001068E-08
   0.22150   0.26354632E-08
   0.22250   0.26541283E-08
   0.22350   0.26602403E-08
   0.22450   0.26579816E-08
   0.22550   0.26516658E-08
   0.22650   0.26457139E-08
   0.22750   0.26445948E-08
   0.22850   0.26527605E-08
   0.22950   0.26746085E-08
   0.23050   0.27145248E-08
   0.23150   0.27771390E-08
   0.23250   0.28682525E-08
   0.23350   0.29983869E-08
   0.23450   0.31951319E-08
   0.23550   0.34753618E-08
   0.23650   0.37681027E-08
   0.23750   0.40349777E-08
   0.23850   0.42665809E-08
   0.23950   0.44593182E-08
   0.24050   0.46122102E-08
   0.24150   0.47262776E-08
   0.24250   0.48041824E-08
   0.24350   0.48498641E-08
   0.24450   0.48681534E-08
   0.24550   0.48643791E-08
   0.24650   0.48439941E-08
   0.24750   0.48122395E-08
   0.24850   0.47738848E-08
   0.24950   0.47330571E-08
   0.25050   0.46931934E-08
   0.25150   0.46571413E-08
   0.25250   0.46274300E-08
   0.25350   0.46067448E-08
   0.25450   0.45986441E-08
   0.25550   0.46085735E-08
   0.25650   0.46452748E-08
   0.25750   0.47227675E-08
   0.25850   0.48632223E-08
   0.25950   0.51013251E-08
   0.26050   0.54912221E-08
   0.26150   0.61180212E-08
   0.26250   0.71173827E-08
   0.26350   0.87094705E-08
   0.26450   0.11258334E-07
   0.26550   0.15376189E-07
   0.26650   0.22106951E-07
   0.26750   0.33249879E-07
   0.26850   0.51932233E-07
   0.26950   0.83628571E-07
   0.27050   0.13799175E-06
   0.27150   0.23218468E-06
   0.27250   0.39704642E-06
   0.27350   0.68874505E-06
   0.27450   0.12113492E-05
   0.27550   0.21617802E-05
   0.27650   0.39220263E-05
   0.27750   0.72538651E-05
   0.27850   0.13719664E-04
   0.27950   0.26596746E-04
   0.28050   0.52782932E-04
   0.28150   0.10609808E-03
   0.28250   0.20926284E-03
   0.28350   0.37792171E-03
   0.28450   0.56036160E-03
   0.28550   0.61817077E-03
   0.28650   0.50520938E-03
   0.28750   0.33629575E-03
   0.28850   0.20398632E-03
   0.28950   0.12141770E-03
   0.29050   0.73468836E-04
   0.29150   0.45774414E-04
   0.29250   0.29436240E-04
   0.29350   0.19504045E-04
   0.29450   0.13274601E-04
   0.29550   0.92510536E-05
   0.29650   0.65827103E-05
   0.29750   0.47716703E-05
   0.29850   0.35195692E-05
   0.29950   0.26504779E-05
   0.30050   0.20444147E-05
   0.30150   0.16126861E-05
   0.30250   0.13025279E-05
   0.30350   0.10809143E-05
   0.30450   0.92629898E-06
   0.30550   0.82481807E-06
   0.30650   0.76837210E-06
   0.30750   0.75384543E-06
   0.30850   0.78327270E-06
   0.30950   0.86506157E-06
   0.31050   0.10166941E-05
   0.31150   0.12698002E-05
   0.31250   0.16793302E-05
   0.31350   0.23401378E-05
   0.31450   0.34174493E-05
   0.31550   0.52042483E-05
   0.31650   0.82328015E-05
   0.31750   0.13499754E-04
   0.31850   0.22941525E-04
   0.31950   0.40494870E-04
   0.32050   0.74627336E-04
   0.32150   0.14490630E-03
   0.32250   0.30100954E-03
   0.32350   0.68630453E-03
   0.32450   0.17991607E-02
   0.32550   0.59939842E-02
   0.32650   0.33055250E-01
   0.32750   0.27620533E+00
   0.32850   0.73137745E-01
   0.32950   0.36910690E-01
   0.33050   0.30878570E-01
   0.33150   0.34528274E-01
   0.33250   0.48153069E-01
   0.33350   0.79400726E-01
   0.33450   0.12657140E+00
   0.33550   0.14964423E+00
   0.33650   0.11613464E+00
   0.33750   0.31795982E-01
   0.33850   0.93530985E-02
   0.33950   0.54441220E-02
   0.34050   0.61589959E-02
   0.34150   0.12397517E-01
   0.34250   0.10395066E-01
   0.34350   0.26626645E-01
   0.34450   0.47388379E-02
   0.34550   0.48976638E-02
   0.34650   0.67497226E-02
   0.34750   0.33091838E-02
   0.34850   0.16974703E-02
   0.34950   0.11520722E-02
   0.35050   0.87789749E-03
   0.35150   0.69163734E-03
   0.35250   0.50140405E-03
   0.35350   0.34861747E-03
   0.35450   0.27298622E-03
   0.35550   0.25099138E-03
   0.35650   0.23917171E-03
   0.35750   0.19353475E-03
   0.35850   0.13027790E-03
   0.35950   0.84411025E-04
   0.36050   0.57225214E-04
   0.36150   0.40380146E-04
   0.36250   0.29070537E-04
   0.36350   0.22252741E-04
   0.36450   0.19635008E-04
   0.36550   0.19895422E-04
   0.36650   0.21551370E-04
   0.36750   0.23485576E-04
   0.36850   0.24976949E-04
   0.36950   0.25799245E-04
   0.37050   0.26033507E-04
   0.37150   0.25620326E-04
   0.37250   0.24204952E-04
   0.37350   0.21417540E-04
   0.37450   0.17284376E-04
   0.37550   0.12393665E-04
   0.37650   0.76591741E-05
   0.37750   0.38941607E-05
   0.37850   0.15114994E-05
   0.37950   0.45550377E-06
   0.38050   0.30345737E-06
   0.38150   0.45691027E-06
   0.38250   0.39939343E-06
   0.38350   0.18727833E-06
   0.38450   0.11090840E-06
   0.38550   0.26225158E-06
   0.38650   0.61697563E-06
   0.38750   0.10925668E-05
   0.38850   0.15856359E-05
   0.38950   0.20002103E-05
   0.39050   0.22667180E-05
   0.39150   0.23511720E-05
   0.39250   0.22555319E-05
   0.39350   0.20114435E-05
   0.39450   0.16700795E-05
   0.39550   0.12907203E-05
   0.39650   0.93020583E-06
   0.39750   0.63470691E-06
   0.39850   0.43455628E-06
   0.39950   0.34227273E-06
   0.40050   0.35344544E-06
   0.40150   0.44983793E-06
   0.40250   0.60391454E-06
   0.40350   0.78396369E-06
   0.40450   0.95906751E-06
   0.40550   0.11033161E-05
   0.40650   0.11988575E-05
   0.40750   0.12375863E-05
   0.40850   0.12214646E-05
   0.40950   0.11616493E-05
   0.41050   0.10767318E-05
   0.41150   0.99056876E-06
   0.41250   0.93069553E-06
   0.41350   0.93190590E-06
   0.41450   0.10658543E-05
   0.41550   0.14039668E-05
   0.41650   0.18898354E-05
   0.41750   0.24500921E-05
   0.41850   0.30204862E-05
   0.41950   0.35436763E-05
   0.42050   0.39732504E-05
   0.42150   0.42780007E-05
   0.42250   0.44446333E-05
   0.42350   0.44785206E-05
   0.42450   0.44025915E-05
   0.42550   0.42546453E-05
   0.42650   0.40834520E-05
   0.42750   0.39440392E-05
   0.42850   0.38926146E-05
   0.42950   0.39816159E-05
   0.43050   0.42554007E-05
   0.43150   0.47470330E-05
   0.43250   0.54765164E-05
   0.43350   0.64506266E-05
   0.43450   0.76643109E-05
   0.43550   0.91034472E-05
   0.43650   0.10748632E-04
   0.43750   0.12579652E-04
   0.43850   0.14580293E-04
   0.43950   0.16743197E-04
   0.44050   0.19074585E-04
   0.44150   0.21598689E-04
   0.44250   0.24361894E-04
   0.44350   0.27436616E-04
   0.44450   0.30925177E-04
   0.44550   0.34964040E-04
   0.44650   0.39729101E-04
   0.44750   0.45442968E-04
   0.44850   0.52385716E-04
   0.44950   0.60911079E-04
   0.45050   0.71471099E-04
   0.45150   0.84653570E-04
   0.45250   0.10123914E-03
   0.45350   0.12228900E-03
   0.45450   0.14928124E-03
   0.45550   0.18432719E-03
   0.45650   0.23052287E-03
   0.45750   0.29253773E-03
   0.45850   0.37763640E-03
   0.45950   0.49752602E-03
   0.46050   0.67186001E-03
   0.46150   0.93525229E-03
   0.46250   0.13521860E-02
   0.46350   0.20505171E-02
   0.46450   0.32962116E-02
   0.46550   0.55475035E-02
   0.46650   0.37092809E-02
   0.46750   0.54389525E-01
   0.46850   0.17140573E+00
   0.46950   0.10582762E+00
   0.47050   0.40077131E-01
   0.47150   0.21620648E-01
   0.47250   0.14810038E-01
   0.47350   0.11954138E-01
   0.47450   0.11032618E-01
   0.47550   0.11586164E-01
   0.47650   0.13833552E-01
   0.47750   0.16405035E-01
   0.47850   0.10320750E-01
   0.47950   0.63950368E-02
   0.48050   0.87843165E-02
   0.48150   0.48357653E-02
   0.48250   0.84722968E-03
   0.48350   0.71048539E-03
   0.48450   0.23106860E-02
   0.48550   0.38112539E-02
   0.48650   0.59000095E-02
   0.48750   0.68562059E-02
   0.48850   0.60333810E-02
   0.48950   0.50307582E-02
   0.49050   0.35920234E-02
   0.49150   0.18477426E-02
   0.49250   0.83993713E-03
   0.49350   0.44996029E-03
   0.49450   0.34538627E-03
   0.49550   0.35230585E-03
   0.49650   0.34530347E-03
   0.49750   0.28026264E-03
   0.49850   0.21214115E-03
   0.49950   0.18827418E-03
   0.50050   0.22850097E-03
   0.50150   0.34082137E-03
   0.50250   0.51536347E-03
   0.50350   0.70507458E-03
   0.50450   0.84245275E-03
   0.50550   0.89193892E-03
   0.50650   0.86413819E-03
   0.50750   0.78616274E-03
   0.50850   0.67918445E-03
   0.50950   0.55622752E-03
   0.51050   0.42808929E-03
   0.51150   0.30722003E-03
   0.51250   0.20563279E-03
   0.51350   0.12994684E-03
   0.51450   0.79493075E-04
   0.51550   0.48735044E-04
   0.51650   0.30867581E-04
   0.51750   0.20164884E-04
   0.51850   0.12866137E-04
   0.51950   0.72275739E-05
   0.52050   0.31691386E-05
   0.52150   0.15601153E-05
   0.52250   0.25352849E-05
   0.52350   0.54086481E-05
   0.52450   0.96030390E-05
   0.52550   0.14572277E-04
   0.52650   0.19728524E-04
   0.52750   0.24459267E-04
   0.52850   0.28214974E-04
   0.52950   0.30640203E-04
   0.53050   0.31682077E-04
   0.53150   0.31594798E-04
   0.53250   0.30641713E-04
   0.53350   0.27797780E-04
   0.53450   0.23193119E-04
   0.53550   0.19520299E-04
   0.53650   0.17496974E-04
   0.53750   0.16998674E-04
   0.53850   0.17677163E-04
   0.53950   0.19112387E-04
   0.54050   0.20889618E-04
   0.54150   0.22654604E-04
   0.54250   0.24149747E-04
   0.54350   0.25230305E-04
   0.54450   0.25862651E-04
   0.54550   0.26109492E-04
   0.54650   0.26107879E-04
   0.54750   0.26045436E-04
   0.54850   0.26138936E-04
   0.54950   0.26618214E-04
   0.55050   0.27717699E-04
   0.55150   0.29677554E-04
   0.55250   0.32757020E-04
   0.55350   0.37263853E-04
   0.55450   0.43606931E-04
   0.55550   0.52385047E-04
   0.55650   0.64537780E-04
   0.55750   0.81611593E-04
   0.55850   0.10625603E-03
   0.55950   0.14321448E-03
   0.56050   0.20146856E-03
   0.56150   0.29935231E-03
   0.56250   0.47833813E-03
   0.56350   0.84679341E-03
   0.56450   0.17551471E-02
   0.56550   0.47952547E-02
   0.56650   0.21925181E-01
   0.56750   0.34094945E-01
   0.56850   0.90707811E-02
   0.56950   0.41287318E-02
   0.57050   0.26092622E-02
   0.57150   0.20110793E-02
   0.57250   0.17951237E-02
   0.57350   0.18210846E-02
   0.57450   0.20939710E-02
   0.57550   0.27393997E-02
   0.57650   0.40392815E-02
   0.57750   0.61070374E-02
   0.57850   0.69970302E-02
   0.57950   0.50557838E-02
   0.58050   0.30830912E-02
   0.58150   0.19704646E-02
   0.58250   0.13722144E-02
   0.58350   0.10279752E-02
   0.58450   0.81238063E-03
   0.58550   0.66650280E-03
   0.58650   0.56065159E-03
   0.58750   0.47126296E-03
   0.58850   0.37587192E-03
   0.58950   0.31618631E-03
   0.59050   0.59872249E-03
   0.59150   0.14792470E-02
   0.59250   0.10419311E-02
   0.59350   0.52294496E-03
   0.59450   0.18383634E-03
   0.59550   0.55878172E-04
   0.59650   0.60902341E-04
   0.59750   0.10697932E-03
   0.59850   0.16925033E-03
   0.59950   0.29447020E-03
   0.60050   0.61021390E-03
   0.60150   0.10636580E-02
   0.60250   0.10287380E-02
   0.60350   0.80601271E-03
   0.60450   0.67844056E-03
   0.60550   0.58954937E-03
   0.60650   0.46851591E-03
   0.60750   0.34582661E-03
   0.60850   0.26564312E-03
   0.60950   0.21941397E-03
   0.61050   0.19268673E-03
   0.61150   0.17868598E-03
   0.61250   0.17305235E-03
   0.61350   0.16971779E-03
   0.61450   0.16436660E-03
   0.61550   0.15933019E-03
   0.61650   0.15920131E-03
   0.61750   0.16575403E-03
   0.61850   0.17479846E-03
   0.61950   0.17949144E-03
   0.62050   0.18076255E-03
   0.62150   0.18019846E-03
   0.62250   0.18192733E-03
   0.62350   0.18982968E-03
   0.62450   0.19813034E-03
   0.62550   0.20430652E-03
   0.62650   0.20806940E-03
   0.62750   0.20937424E-03
   0.62850   0.20807245E-03
   0.62950   0.20392827E-03
   0.63050   0.19676083E-03
   0.63150   0.18660576E-03
   0.63250   0.17381599E-03
   0.63350   0.15905683E-03
   0.63450   0.14320338E-03
   0.63550   0.12719566E-03
   0.63650   0.11192181E-03
   0.63750   0.98181379E-04
   0.63850   0.86751417E-04
   0.63950   0.78566452E-04
   0.64050   0.75043499E-04
   0.64150   0.78652760E-04
   0.64250   0.93996467E-04
   0.64350   0.13005860E-03
   0.64450   0.20536619E-03
   0.64550   0.36088657E-03
   0.64650   0.69396751E-03
   0.64750   0.14370881E-02
   0.64850   0.29309960E-02
   0.64950   0.42429152E-02
   0.65050   0.34702406E-02
   0.65150   0.22690867E-02
   0.65250   0.15284263E-02
   0.65350   0.11122598E-02
   0.65450   0.87017159E-03
   0.65550   0.72434411E-03
   0.65650   0.63635706E-03
   0.65750   0.58661419E-03
   0.65850   0.56492689E-03
   0.65950   0.56626217E-03
   0.66050   0.58878341E-03
   0.66150   0.63293328E-03
   0.66250   0.70095051E-03
   0.66350   0.79636049E-03
   0.66450   0.92279242E-03
   0.66550   0.10809493E-02
   0.66650   0.12620734E-02
   0.66750   0.14379529E-02
   0.66850   0.15561201E-02
   0.66950   0.15602270E-02
   0.67050   0.14354726E-02
   0.67150   0.12262529E-02
   0.67250   0.99747803E-03
   0.67350   0.79280592E-03
   0.67450   0.62761607E-03
   0.67550   0.50051278E-03
   0.67650   0.40375243E-03
   0.67750   0.32827019E-03
   0.67850   0.26574472E-03
   0.67950   0.21167935E-03
   0.68050   0.17233957E-03
   0.68150   0.16715216E-03
   0.68250   0.21543501E-03
   0.68350   0.32107989E-03
   0.68450   0.43756919E-03
   0.68550   0.46503541E-03
   0.68650   0.41544315E-03
   0.68750   0.38326360E-03
   0.68850   0.40517130E-03
   0.68950   0.35500614E-03
   0.69050   0.23164890E-03
   0.69150   0.16329068E-03
   0.69250   0.13025587E-03
   0.69350   0.11281782E-03
   0.69450   0.10355455E-03
   0.69550   0.98667384E-04
   0.69650   0.95697673E-04
   0.69750   0.93618801E-04
   0.69850   0.92321345E-04
   0.69950   0.92163049E-04
   0.70050   0.93775445E-04
   0.70150   0.97913573E-04
   0.70250   0.10511895E-03
   0.70350   0.11467507E-03
   0.70450   0.12199004E-03
   0.70550   0.11680677E-03
   0.70650   0.94707852E-04
   0.70750   0.70047834E-04
   0.70850   0.60444490E-04
   0.70950   0.72712908E-04
   0.71050   0.10628729E-03
   0.71150   0.15518187E-03
   0.71250   0.20518039E-03
   0.71350   0.23917352E-03
   0.71450   0.25103858E-03
   0.71550   0.24741824E-03
   0.71650   0.23764916E-03
   0.71750   0.22795259E-03
   0.71850   0.22152120E-03
   0.71950   0.21991956E-03
   0.72050   0.22399108E-03
   0.72150   0.23423745E-03
   0.72250   0.25090520E-03
   0.72350   0.27394309E-03
   0.72450   0.30295382E-03
   0.72550   0.33726208E-03
   0.72650   0.37619923E-03
   0.72750   0.41961391E-03
   0.72850   0.46851879E-03
   0.72950   0.52583142E-03
   0.73050   0.59761258E-03
   0.73150   0.69721742E-03
   0.73250   0.86275476E-03
   0.73350   0.11611396E-02
   0.73450   0.16918007E-02
   0.73550   0.27613987E-02
   0.73650   0.49315635E-02
   0.73750   0.55854535E-02
   0.73850   0.28946516E-02
   0.73950   0.16253702E-02
   0.74050   0.12287473E-02
   0.74150   0.11318097E-02
   0.74250   0.11560398E-02
   0.74350   0.12439953E-02
   0.74450   0.13772144E-02
   0.74550   0.15526491E-02
   0.74650   0.17752827E-02
   0.74750   0.20557831E-02
   0.74850   0.24096433E-02
   0.74950   0.28558164E-02
   0.75050   0.34119573E-02
   0.75150   0.40803445E-02
   0.75250   0.48148837E-02
   0.75350   0.54685688E-02
   0.75450   0.57774819E-02
   0.75550   0.55091986E-02
   0.75650   0.47189454E-02
   0.75750   0.37298519E-02
   0.75850   0.28362568E-02
   0.75950   0.21562751E-02
   0.76050   0.16881860E-02
   0.76150   0.13920879E-02
   0.76250   0.12303372E-02
   0.76350   0.11791752E-02
   0.76450   0.12271991E-02
   0.76550   0.13634750E-02
   0.76650   0.15547307E-02
   0.76750   0.17368504E-02
   0.76850   0.18598387E-02
   0.76950   0.19304345E-02
   0.77050   0.19829869E-02
   0.77150   0.20422884E-02
   0.77250   0.21187840E-02
   0.77350   0.22012293E-02
   0.77450   0.22389952E-02
   0.77550   0.22003152E-02
   0.77650   0.21558870E-02
   0.77750   0.21862220E-02
   0.77850   0.22972289E-02
   0.77950   0.24308725E-02
   0.78050   0.25168010E-02
   0.78150   0.25451356E-02
   0.78250   0.25712363E-02
   0.78350   0.26188155E-02
   0.78450   0.26577977E-02
   0.78550   0.26721847E-02
   0.78650   0.26565930E-02
   0.78750   0.26136592E-02
   0.78850   0.25528355E-02
   0.78950   0.24885933E-02
   0.79050   0.24393885E-02
   0.79150   0.24220855E-02
   0.79250   0.23951195E-02
   0.79350   0.22789666E-02
   0.79450   0.21937301E-02
   0.79550   0.21706305E-02
   0.79650   0.21815314E-02
   0.79750   0.22060166E-02
   0.79850   0.22273720E-02
   0.79950   0.22305483E-02
   0.80050   0.22045574E-02
   0.80150   0.21456480E-02
   0.80250   0.20583223E-02
   0.80350   0.19532610E-02
   0.80450   0.18436629E-02
   0.80550   0.17422950E-02
   0.80650   0.16603522E-02
   0.80750   0.16076940E-02
   0.80850   0.15934842E-02
   0.80950   0.16265133E-02
   0.81050   0.17147311E-02
   0.81150   0.18634396E-02
   0.81250   0.20714258E-02
   0.81350   0.23249045E-02
   0.81450   0.25916975E-02
   0.81550   0.28224676E-02
   0.81650   0.29662806E-02
   0.81750   0.29958070E-02
   0.81850   0.29218658E-02
   0.81950   0.27838626E-02
   0.82050   0.26274463E-02
   0.82150   0.24883365E-02
   0.82250   0.23882235E-02
   0.82350   0.23381710E-02
   0.82450   0.23454865E-02
   0.82550   0.24282280E-02
   0.82650   0.26150220E-02
   0.82750   0.28625382E-02
   0.82850   0.31417755E-02
   0.82950   0.34533348E-02
   0.83050   0.38011130E-02
   0.83150   0.41893576E-02
   0.83250   0.46227151E-02
   0.83350   0.51062657E-02
   0.83450   0.56453478E-02
   0.83550   0.62452722E-02
   0.83650   0.69110636E-02
   0.83750   0.76473230E-02
   0.83850   0.84581897E-02
   0.83950   0.93472209E-02
   0.84050   0.10316829E-01
   0.84150   0.11366666E-01
   0.84250   0.12487285E-01
   0.84350   0.13631719E-01
   0.84450   0.14745926E-01
   0.84550   0.15831433E-01
   0.84650   0.16886836E-01
   0.84750   0.17910836E-01
   0.84850   0.18834997E-01
   0.84950   0.19606592E-01
   0.85050   0.20284330E-01
   0.85150   0.20920880E-01
   0.85250   0.21534363E-01
   0.85350   0.22076726E-01
   0.85450   0.22435479E-01
   0.85550   0.22506479E-01
   0.85650   0.22262914E-01
   0.85750   0.21737814E-01
   0.85850   0.20959027E-01
   0.85950   0.19880274E-01
   0.86050   0.18292515E-01
   0.86150   0.15908467E-01
   0.86250   0.17966293E-01
   0.86350   0.16809311E-01
   0.86450   0.14772720E-01
   0.86550   0.13899035E-01
   0.86650   0.14952663E-01
   0.86750   0.17766559E-01
   0.86850   0.22462852E-01
   0.86950   0.25271878E-01
   0.87050   0.24555214E-01
   0.87150   0.23212565E-01
   0.87250   0.22260431E-01
   0.87350   0.21633595E-01
   0.87450   0.21184420E-01
   0.87550   0.20825198E-01
   0.87650   0.20496389E-01
   0.87750   0.20149900E-01
   0.87850   0.19780839E-01
   0.87950   0.19459533E-01
   0.88050   0.19303454E-01
   0.88150   0.19410433E-01
   0.88250   0.19815499E-01
   0.88350   0.20491935E-01
   0.88450   0.21370357E-01
   0.88550   0.22344673E-01
   0.88650   0.23267504E-01
   0.88750   0.23964282E-01
   0.88850   0.24283824E-01
   0.88950   0.24162494E-01
   0.89050   0.23650482E-01
   0.89150   0.22875221E-01
   0.89250   0.21975521E-01
   0.89350   0.21057615E-01
   0.89450   0.20189332E-01
   0.89550   0.19414548E-01
   0.89650   0.18767131E-01
   0.89750   0.18277196E-01
   0.89850   0.17972665E-01
   0.89950   0.17882561E-01
   0.90050   0.18053137E-01
   0.90150   0.18532312E-01
   0.90250   0.19259026E-01
   0.90350   0.20179527E-01
   0.90450   0.21255396E-01
   0.90550   0.22444220E-01
   0.90650   0.23695154E-01
   0.90750   0.24952088E-01
   0.90850   0.26160996E-01
   0.90950   0.27279738E-01
   0.91050   0.28287372E-01
   0.91150   0.29188871E-01
   0.91250   0.30012539E-01
   0.91350   0.30800967E-01
   0.91450   0.31599287E-01
   0.91550   0.32444268E-01
   0.91650   0.33355895E-01
   0.91750   0.34331273E-01
   0.91850   0.35340771E-01
   0.91950   0.36327865E-01
   0.92050   0.37215423E-01
   0.92150   0.37920434E-01
   0.92250   0.38374942E-01
   0.92350   0.38545452E-01
   0.92450   0.38435452E-01
   0.92550   0.38019035E-01
   0.92650   0.36833782E-01
   0.92750   0.32453686E-01
   0.92850   0.25567520E-01
   0.92950   0.25591966E-01
   0.93050   0.27645033E-01
   0.93150   0.29480958E-01
   0.93250   0.31164736E-01
   0.93350   0.32862686E-01
   0.93450   0.34693599E-01
   0.93550   0.36759399E-01
   0.93650   0.39146986E-01
   0.93750   0.41891165E-01
   0.93850   0.44911012E-01
   0.93950   0.47973387E-01
   0.94050   0.50770126E-01
   0.94150   0.53108286E-01
   0.94250   0.55040028E-01
   0.94350   0.56783967E-01
   0.94450   0.58529444E-01
   0.94550   0.60322508E-01
   0.94650   0.62100489E-01
   0.94750   0.63738063E-01
   0.94850   0.65125346E-01
   0.94950   0.66205852E-01
   0.95050   0.66969007E-01
   0.95150   0.67422628E-01
   0.95250   0.67561194E-01
   0.95350   0.67340136E-01
   0.95450   0.66661984E-01
   0.95550   0.65420590E-01
   0.95650   0.63978747E-01
   0.95750   0.62832184E-01
   0.95850   0.61999094E-01
   0.95950   0.61425276E-01
   0.96050   0.61057065E-01
   0.96150   0.60839929E-01
   0.96250   0.60719170E-01
   0.96350   0.60645681E-01
   0.96450   0.60585652E-01
   0.96550   0.60528945E-01
   0.96650   0.60489330E-01
   0.96750   0.60494777E-01
   0.96850   0.60572635E-01
   0.96950   0.60736015E-01
   0.97050   0.60974456E-01
   0.97150   0.61249096E-01
   0.97250   0.61491609E-01
   0.97350   0.61605189E-01
   0.97450   0.61452091E-01
   0.97550   0.60738754E-01
   0.97650   0.59012026E-01
   0.97750   0.55989161E-01
   0.97850   0.51931586E-01
   0.97950   0.50551496E-01
   0.98050   0.52961662E-01
   0.98150   0.56234095E-01
   0.98250   0.59698280E-01
   0.98350   0.63678145E-01
   0.98450   0.68598360E-01
   0.98550   0.74917316E-01
   0.98650   0.83051190E-01
   0.98750   0.92986085E-01
   0.98850   0.10392267E+00
   0.98950   0.11519136E+00
   0.99050   0.12690295E+00
   0.99150   0.13955323E+00
   0.99250   0.15350126E+00
   0.99350   0.16881424E+00
   0.99450   0.18511420E+00
   0.99550   0.20224065E+00
   0.99650   0.22079819E+00
   0.99750   0.24106336E+00
   0.99850   0.26236859E+00
   0.99950   0.28202504E+00
