# Transmission, k-averaged
# Date: 2021-05-13
#   E [eV]           T [G0]
   0.00050   0.62932745E-01
   0.00150   0.12786600E+00
   0.00250   0.47378190E-01
   0.00350   0.40336125E-01
   0.00450   0.11626802E+00
   0.00550   0.21997023E-01
   0.00650   0.42480614E-01
   0.00750   0.12541187E-01
   0.00850   0.99690855E-01
   0.00950   0.73598996E-02
   0.01050   0.10145279E-01
   0.01150   0.47899704E-01
   0.01250   0.41511091E-02
   0.01350   0.37094043E-02
   0.01450   0.28984044E-01
   0.01550   0.71337325E-02
   0.01650   0.20386758E-02
   0.01750   0.22568838E-02
   0.01850   0.11052785E-01
   0.01950   0.13795078E-01
   0.02050   0.22755431E-02
   0.02150   0.15844256E-02
   0.02250   0.25655215E-02
   0.02350   0.15032101E-01
   0.02450   0.18093608E-01
   0.02550   0.32367304E-02
   0.02650   0.20356157E-02
   0.02750   0.24608443E-02
   0.02850   0.59436993E-02
   0.02950   0.57082325E-01
   0.03050   0.15038516E-01
   0.03150   0.44098562E-02
   0.03250   0.30250463E-02
   0.03350   0.34548002E-02
   0.03450   0.66417404E-02
   0.03550   0.30710794E-01
   0.03650   0.50391603E-01
   0.03750   0.96175149E-02
   0.03850   0.48826062E-02
   0.03950   0.41659125E-02
   0.04050   0.53897239E-02
   0.04150   0.11571981E-01
   0.04250   0.53448752E-01
   0.04350   0.30179443E-01
   0.04450   0.84167402E-02
   0.04550   0.48143649E-02
   0.04650   0.41636485E-02
   0.04750   0.46429797E-02
   0.04850   0.61533991E-02
   0.04950   0.82768621E-02
   0.05050   0.82408516E-02
   0.05150   0.57730442E-02
   0.05250   0.38367524E-02
   0.05350   0.28463225E-02
   0.05450   0.24263444E-02
   0.05550   0.23546894E-02
   0.05650   0.25365523E-02
   0.05750   0.28733611E-02
   0.05850   0.30918864E-02
   0.05950   0.28499602E-02
   0.06050   0.22789694E-02
   0.06150   0.17622714E-02
   0.06250   0.14373764E-02
   0.06350   0.12837484E-02
   0.06450   0.12641244E-02
   0.06550   0.13524141E-02
   0.06650   0.15068178E-02
   0.06750   0.16261479E-02
   0.06850   0.15993769E-02
   0.06950   0.14598370E-02
   0.07050   0.13377316E-02
   0.07150   0.13156524E-02
   0.07250   0.14295132E-02
   0.07350   0.17101325E-02
   0.07450   0.21816418E-02
   0.07550   0.27994823E-02
   0.07650   0.33951751E-02
   0.07750   0.38170973E-02
   0.07850   0.41227639E-02
   0.07950   0.44883774E-02
   0.08050   0.50567454E-02
   0.08150   0.59008384E-02
   0.08250   0.70091165E-02
   0.08350   0.82545336E-02
   0.08450   0.94224969E-02
   0.08550   0.10352344E-01
   0.08650   0.11059052E-01
   0.08750   0.11689915E-01
   0.08850   0.12402724E-01
   0.08950   0.13291562E-01
   0.09050   0.14352502E-01
   0.09150   0.15366339E-01
   0.09250   0.15593664E-01
   0.09350   0.15019934E-01
   0.09450   0.14296426E-01
   0.09550   0.13599062E-01
   0.09650   0.12971290E-01
   0.09750   0.12422336E-01
   0.09850   0.11943314E-01
   0.09950   0.11516146E-01
   0.10050   0.11120768E-01
   0.10150   0.10740314E-01
   0.10250   0.10363950E-01
   0.10350   0.99874288E-02
   0.10450   0.96118134E-02
   0.10550   0.92412271E-02
   0.10650   0.88805286E-02
   0.10750   0.85335681E-02
   0.10850   0.82022855E-02
   0.10950   0.78865811E-02
   0.11050   0.75847199E-02
   0.11150   0.72940094E-02
   0.11250   0.70115272E-02
   0.11350   0.67347391E-02
   0.11450   0.64619016E-02
   0.11550   0.61922180E-02
   0.11650   0.59257532E-02
   0.11750   0.56631840E-02
   0.11850   0.54054740E-02
   0.11950   0.51535615E-02
   0.12050   0.49081324E-02
   0.12150   0.46695136E-02
   0.12250   0.44376776E-02
   0.12350   0.42123455E-02
   0.12450   0.39931377E-02
   0.12550   0.37797426E-02
   0.12650   0.35720502E-02
   0.12750   0.33702420E-02
   0.12850   0.31748062E-02
   0.12950   0.29864952E-02
   0.13050   0.28062349E-02
   0.13150   0.26350128E-02
   0.13250   0.24737727E-02
   0.13350   0.23233341E-02
   0.13450   0.21843445E-02
   0.13550   0.20572687E-02
   0.13650   0.19424034E-02
   0.13750   0.18399076E-02
   0.13850   0.17498373E-02
   0.13950   0.16721750E-02
   0.14050   0.16068490E-02
   0.14150   0.15537412E-02
   0.14250   0.15126849E-02
   0.14350   0.14834556E-02
   0.14450   0.14657596E-02
   0.14550   0.14592219E-02
   0.14650   0.14633774E-02
   0.14750   0.14776643E-02
   0.14850   0.15014230E-02
   0.14950   0.15338970E-02
   0.15050   0.15742426E-02
   0.15150   0.16215417E-02
   0.15250   0.16748247E-02
   0.15350   0.17330986E-02
   0.15450   0.17953807E-02
   0.15550   0.18607341E-02
   0.15650   0.19282982E-02
   0.15750   0.19973130E-02
   0.15850   0.20671301E-02
   0.15950   0.21372098E-02
   0.16050   0.22071064E-02
   0.16150   0.22764443E-02
   0.16250   0.23448865E-02
   0.16350   0.24121071E-02
   0.16450   0.24777642E-02
   0.16550   0.25414822E-02
   0.16650   0.26028361E-02
   0.16750   0.26613371E-02
   0.16850   0.27164035E-02
   0.16950   0.27672893E-02
   0.17050   0.28129136E-02
   0.17150   0.28514359E-02
   0.17250   0.28791402E-02
   0.17350   0.28870541E-02
   0.17450   0.28487050E-02
   0.17550   0.26857744E-02
   0.17650   0.23929398E-02
   0.17750   0.21433514E-02
   0.17850   0.19559688E-02
   0.17950   0.18096125E-02
   0.18050   0.16905792E-02
   0.18150   0.15908023E-02
   0.18250   0.15052771E-02
   0.18350   0.14307165E-02
   0.18450   0.13648578E-02
   0.18550   0.13060831E-02
   0.18650   0.12531988E-02
   0.18750   0.12053024E-02
   0.18850   0.11616952E-02
   0.18950   0.11218262E-02
   0.19050   0.10852530E-02
   0.19150   0.10516142E-02
   0.19250   0.10206106E-02
   0.19350   0.99199056E-03
   0.19450   0.96553995E-03
   0.19550   0.94107498E-03
   0.19650   0.91843639E-03
   0.19750   0.89748547E-03
   0.19850   0.87810121E-03
   0.19950   0.86017814E-03
   0.20050   0.84362453E-03
   0.20150   0.82836137E-03
   0.20250   0.81432104E-03
   0.20350   0.80144661E-03
   0.20450   0.78969088E-03
   0.20550   0.77901571E-03
   0.20650   0.76939131E-03
   0.20750   0.76079520E-03
   0.20850   0.75321185E-03
   0.20950   0.74663182E-03
   0.21050   0.74105122E-03
   0.21150   0.73647156E-03
   0.21250   0.73289976E-03
   0.21350   0.73034968E-03
   0.21450   0.72884728E-03
   0.21550   0.72845217E-03
   0.21650   0.72935957E-03
   0.21750   0.73234196E-03
   0.21850   0.73804182E-03
   0.21950   0.74502785E-03
   0.22050   0.75286435E-03
   0.22150   0.76167058E-03
   0.22250   0.77159877E-03
   0.22350   0.78280224E-03
   0.22450   0.79544960E-03
   0.22550   0.80974231E-03
   0.22650   0.82593423E-03
   0.22750   0.84435765E-03
   0.22850   0.86546101E-03
   0.22950   0.88986580E-03
   0.23050   0.91845181E-03
   0.23150   0.95246546E-03
   0.23250   0.99349499E-03
   0.23350   0.10418150E-02
   0.23450   0.10808792E-02
   0.23550   0.10593027E-02
   0.23650   0.10017289E-02
   0.23750   0.94182795E-03
   0.23850   0.88566641E-03
   0.23950   0.83367468E-03
   0.24050   0.78543456E-03
   0.24150   0.74047229E-03
   0.24250   0.69839216E-03
   0.24350   0.65888482E-03
   0.24450   0.62171178E-03
   0.24550   0.58668805E-03
   0.24650   0.55366807E-03
   0.24750   0.52253413E-03
   0.24850   0.49318810E-03
   0.24950   0.46554528E-03
   0.25050   0.43952966E-03
   0.25150   0.41507074E-03
   0.25250   0.39210141E-03
   0.25350   0.37055646E-03
   0.25450   0.35037182E-03
   0.25550   0.33148404E-03
   0.25650   0.31383039E-03
   0.25750   0.29734866E-03
   0.25850   0.28197770E-03
   0.25950   0.26765742E-03
   0.26050   0.25432926E-03
   0.26150   0.24193646E-03
   0.26250   0.23042415E-03
   0.26350   0.21973980E-03
   0.26450   0.20983322E-03
   0.26550   0.20065675E-03
   0.26650   0.19216535E-03
   0.26750   0.18431660E-03
   0.26850   0.17707080E-03
   0.26950   0.17039085E-03
   0.27050   0.16424227E-03
   0.27150   0.15859313E-03
   0.27250   0.15341403E-03
   0.27350   0.14867795E-03
   0.27450   0.14436019E-03
   0.27550   0.14043839E-03
   0.27650   0.13689230E-03
   0.27750   0.13370380E-03
   0.27850   0.13085685E-03
   0.27950   0.12833739E-03
   0.28050   0.12613329E-03
   0.28150   0.12423440E-03
   0.28250   0.12263238E-03
   0.28350   0.12132081E-03
   0.28450   0.12029518E-03
   0.28550   0.11955285E-03
   0.28650   0.11909308E-03
   0.28750   0.11891707E-03
   0.28850   0.11902789E-03
   0.28950   0.11943030E-03
   0.29050   0.12013048E-03
   0.29150   0.12113504E-03
   0.29250   0.12244906E-03
   0.29350   0.12407130E-03
   0.29450   0.12598236E-03
   0.29550   0.12811249E-03
   0.29650   0.13024118E-03
   0.29750   0.13161838E-03
   0.29850   0.12940678E-03
   0.29950   0.11899107E-03
   0.30050   0.10717093E-03
   0.30150   0.98270422E-04
   0.30250   0.91678383E-04
   0.30350   0.86690685E-04
   0.30450   0.82866587E-04
   0.30550   0.79930775E-04
   0.30650   0.77704230E-04
   0.30750   0.76066361E-04
   0.30850   0.74933974E-04
   0.30950   0.74249045E-04
   0.31050   0.73971241E-04
   0.31150   0.74073170E-04
   0.31250   0.74537158E-04
   0.31350   0.75352917E-04
   0.31450   0.76515818E-04
   0.31550   0.78025201E-04
   0.31650   0.79882717E-04
   0.31750   0.82090337E-04
   0.31850   0.84647603E-04
   0.31950   0.87547945E-04
   0.32050   0.90773385E-04
   0.32150   0.94287127E-04
   0.32250   0.98023542E-04
   0.32350   0.10187522E-03
   0.32450   0.10567815E-03
   0.32550   0.10919800E-03
   0.32650   0.11212598E-03
   0.32750   0.11409935E-03
   0.32850   0.11477029E-03
   0.32950   0.11394443E-03
   0.33050   0.11177750E-03
   0.33150   0.10893289E-03
   0.33250   0.10650093E-03
   0.33350   0.10551787E-03
   0.33450   0.10625646E-03
   0.33550   0.10786401E-03
   0.33650   0.10878030E-03
   0.33750   0.10762887E-03
   0.33850   0.10384777E-03
   0.33950   0.97710959E-04
   0.34050   0.89963003E-04
   0.34150   0.81431543E-04
   0.34250   0.72798815E-04
   0.34350   0.64530614E-04
   0.34450   0.56895326E-04
   0.34550   0.50014743E-04
   0.34650   0.43915141E-04
   0.34750   0.38567112E-04
   0.34850   0.33912904E-04
   0.34950   0.29883638E-04
   0.35050   0.26409369E-04
   0.35150   0.23424556E-04
   0.35250   0.20870722E-04
   0.35350   0.18697507E-04
   0.35450   0.16862916E-04
   0.35550   0.15333257E-04
   0.35650   0.14083130E-04
   0.35750   0.13095887E-04
   0.35850   0.12365222E-04
   0.35950   0.11899586E-04
   0.36050   0.11734923E-04
   0.36150   0.11976786E-04
   0.36250   0.12910372E-04
   0.36350   0.14576151E-04
   0.36450   0.16320988E-04
   0.36550   0.18033597E-04
   0.36650   0.19790768E-04
   0.36750   0.21660599E-04
   0.36850   0.23702240E-04
   0.36950   0.25974214E-04
   0.37050   0.28540493E-04
   0.37150   0.31475709E-04
   0.37250   0.34870704E-04
   0.37350   0.38839502E-04
   0.37450   0.43528889E-04
   0.37550   0.49132355E-04
   0.37650   0.55911449E-04
   0.37750   0.64229731E-04
   0.37850   0.74608324E-04
   0.37950   0.87811983E-04
   0.38050   0.10490175E-03
   0.38150   0.12620987E-03
   0.38250   0.14468504E-03
   0.38350   0.15543248E-03
   0.38450   0.16460899E-03
   0.38550   0.17453954E-03
   0.38650   0.18572225E-03
   0.38750   0.19821156E-03
   0.38850   0.21185431E-03
   0.38950   0.22629873E-03
   0.39050   0.24095926E-03
   0.39150   0.25500244E-03
   0.39250   0.26741222E-03
   0.39350   0.27718287E-03
   0.39450   0.28361561E-03
   0.39550   0.28655253E-03
   0.39650   0.28630314E-03
   0.39750   0.28322989E-03
   0.39850   0.27737007E-03
   0.39950   0.26850792E-03
   0.40050   0.25659738E-03
   0.40150   0.24206786E-03
   0.40250   0.22577119E-03
   0.40350   0.20871127E-03
   0.40450   0.19178967E-03
   0.40550   0.17567618E-03
   0.40650   0.16079248E-03
   0.40750   0.14735703E-03
   0.40850   0.13544763E-03
   0.40950   0.12505976E-03
   0.41050   0.11615302E-03
   0.41150   0.10868319E-03
   0.41250   0.10259209E-03
   0.41350   0.97474287E-04
   0.41450   0.90592497E-04
   0.41550   0.80033104E-04
   0.41650   0.69163936E-04
   0.41750   0.58500165E-04
   0.41850   0.46896024E-04
   0.41950   0.32102464E-04
   0.42050   0.12397314E-04
   0.42150   0.10191896E-04
   0.42250   0.51125433E-04
   0.42350   0.69516587E-04
   0.42450   0.73146577E-04
   0.42550   0.74242183E-04
   0.42650   0.75854245E-04
   0.42750   0.78909019E-04
   0.42850   0.84010069E-04
   0.42950   0.91935566E-04
   0.43050   0.10397223E-03
   0.43150   0.12249962E-03
   0.43250   0.15253316E-03
   0.43350   0.20687487E-03
   0.43450   0.32417648E-03
   0.43550   0.52902987E-03
   0.43650   0.46262529E-03
   0.43750   0.42651995E-03
   0.43850   0.44582522E-03
   0.43950   0.43595370E-03
   0.44050   0.35244308E-03
   0.44150   0.22749386E-03
   0.44250   0.13532123E-03
   0.44350   0.85630127E-04
   0.44450   0.22261262E-03
   0.44550   0.87763183E-02
   0.44650   0.40199170E-02
   0.44750   0.13742049E-02
   0.44850   0.11800545E-02
   0.44950   0.74885844E-03
   0.45050   0.61981846E-03
   0.45150   0.65762369E-03
   0.45250   0.70761779E-03
   0.45350   0.75884839E-03
   0.45450   0.80950843E-03
   0.45550   0.85898791E-03
   0.45650   0.89986360E-03
   0.45750   0.91834855E-03
   0.45850   0.90970314E-03
   0.45950   0.87957608E-03
   0.46050   0.83510246E-03
   0.46150   0.78072812E-03
   0.46250   0.72011066E-03
   0.46350   0.65766030E-03
   0.46450   0.59748132E-03
   0.46550   0.54209318E-03
   0.46650   0.49249659E-03
   0.46750   0.44894961E-03
   0.46850   0.41150820E-03
   0.46950   0.38011849E-03
   0.47050   0.35452365E-03
   0.47150   0.33422044E-03
   0.47250   0.31851520E-03
   0.47350   0.30663592E-03
   0.47450   0.29785087E-03
   0.47550   0.29155274E-03
   0.47650   0.28728260E-03
   0.47750   0.28469888E-03
   0.47850   0.28352175E-03
   0.47950   0.28348720E-03
   0.48050   0.28432955E-03
   0.48150   0.28579147E-03
   0.48250   0.28764742E-03
   0.48350   0.28972494E-03
   0.48450   0.29191197E-03
   0.48550   0.29415000E-03
   0.48650   0.29641666E-03
   0.48750   0.29870638E-03
   0.48850   0.30101286E-03
   0.48950   0.30331459E-03
   0.49050   0.30555867E-03
   0.49150   0.30763572E-03
   0.49250   0.30933585E-03
   0.49350   0.31027515E-03
   0.49450   0.30977494E-03
   0.49550   0.30655993E-03
   0.49650   0.29741536E-03
   0.49750   0.27380884E-03
   0.49850   0.23585616E-03
   0.49950   0.21569259E-03
   0.50050   0.21173387E-03
   0.50150   0.21373035E-03
   0.50250   0.21796074E-03
   0.50350   0.22304266E-03
   0.50450   0.22842361E-03
   0.50550   0.23389597E-03
   0.50650   0.23941194E-03
   0.50750   0.24500242E-03
   0.50850   0.25073776E-03
   0.50950   0.25670775E-03
   0.51050   0.26301210E-03
   0.51150   0.26975764E-03
   0.51250   0.27706145E-03
   0.51350   0.28505875E-03
   0.51450   0.29391650E-03
   0.51550   0.30385362E-03
   0.51650   0.31516951E-03
   0.51750   0.32828128E-03
   0.51850   0.34374057E-03
   0.51950   0.36194918E-03
   0.52050   0.38016634E-03
   0.52150   0.38536347E-03
   0.52250   0.38050330E-03
   0.52350   0.37591625E-03
   0.52450   0.37354146E-03
   0.52550   0.37350858E-03
   0.52650   0.37579681E-03
   0.52750   0.38049134E-03
   0.52850   0.38784379E-03
   0.52950   0.39829972E-03
   0.53050   0.41245035E-03
   0.53150   0.43050593E-03
   0.53250   0.44886896E-03
   0.53350   0.45103909E-03
   0.53450   0.44134646E-03
   0.53550   0.43540256E-03
   0.53650   0.42470216E-03
   0.53750   0.40332368E-03
   0.53850   0.37542294E-03
   0.53950   0.34678273E-03
   0.54050   0.32028183E-03
   0.54150   0.29672045E-03
   0.54250   0.27603790E-03
   0.54350   0.25789911E-03
   0.54450   0.24192360E-03
   0.54550   0.22776454E-03
   0.54650   0.21512898E-03
   0.54750   0.20377667E-03
   0.54850   0.19351245E-03
   0.54950   0.18417787E-03
   0.55050   0.17564389E-03
   0.55150   0.16780471E-03
   0.55250   0.16057324E-03
   0.55350   0.15387726E-03
   0.55450   0.14765668E-03
   0.55550   0.14186116E-03
   0.55650   0.13644842E-03
   0.55750   0.13138269E-03
   0.55850   0.12663366E-03
   0.55950   0.12217555E-03
   0.56050   0.11798638E-03
   0.56150   0.11404743E-03
   0.56250   0.11034287E-03
   0.56350   0.10685948E-03
   0.56450   0.10358646E-03
   0.56550   0.10051552E-03
   0.56650   0.97640906E-04
   0.56750   0.94959760E-04
   0.56850   0.92472597E-04
   0.56950   0.90184090E-04
   0.57050   0.88104047E-04
   0.57150   0.86248605E-04
   0.57250   0.84640473E-04
   0.57350   0.83304789E-04
   0.57450   0.82247243E-04
   0.57550   0.81369268E-04
   0.57650   0.80192869E-04
   0.57750   0.77311015E-04
   0.57850   0.71050468E-04
   0.57950   0.63561783E-04
   0.58050   0.58677233E-04
   0.58150   0.56258177E-04
   0.58250   0.54942360E-04
   0.58350   0.54003551E-04
   0.58450   0.53172054E-04
   0.58550   0.52359428E-04
   0.58650   0.51540042E-04
   0.58750   0.50708484E-04
   0.58850   0.49864677E-04
   0.58950   0.49008668E-04
   0.59050   0.48138805E-04
   0.59150   0.47251040E-04
   0.59250   0.46338646E-04
   0.59350   0.45392098E-04
   0.59450   0.44399221E-04
   0.59550   0.43346023E-04
   0.59650   0.42219592E-04
   0.59750   0.41016472E-04
   0.59850   0.39767307E-04
   0.59950   0.38616814E-04
   0.60050   0.38160731E-04
   0.60150   0.41863081E-04
   0.60250   0.94946714E-04
   0.60350   0.94909512E-04
   0.60450   0.12854618E-03
   0.60550   0.31793184E-03
   0.60650   0.61822124E-03
   0.60750   0.55309047E-03
   0.60850   0.41478820E-03
   0.60950   0.34126348E-03
   0.61050   0.30609954E-03
   0.61150   0.28676164E-03
   0.61250   0.26640424E-03
   0.61350   0.25397082E-03
   0.61450   0.70868898E-03
   0.61550   0.75943745E-03
   0.61650   0.11235616E-02
   0.61750   0.52472262E-03
   0.61850   0.11538267E+00
   0.61950   0.20560583E-01
   0.62050   0.10063528E-01
   0.62150   0.85818246E-02
   0.62250   0.94087981E-02
   0.62350   0.67213476E-02
   0.62450   0.57190843E-02
   0.62550   0.47332332E-02
   0.62650   0.44244230E-02
   0.62750   0.36509996E-02
   0.62850   0.32044603E-02
   0.62950   0.29567995E-02
   0.63050   0.30034145E-02
   0.63150   0.30707368E-02
   0.63250   0.30151911E-02
   0.63350   0.28914649E-02
   0.63450   0.26412448E-02
   0.63550   0.23288382E-02
   0.63650   0.20808177E-02
   0.63750   0.19063517E-02
   0.63850   0.17708245E-02
   0.63950   0.16670342E-02
   0.64050   0.15964021E-02
   0.64150   0.15474611E-02
   0.64250   0.15038920E-02
   0.64350   0.14568556E-02
   0.64450   0.14060159E-02
   0.64550   0.13535257E-02
   0.64650   0.13001389E-02
   0.64750   0.12454579E-02
   0.64850   0.11894398E-02
   0.64950   0.11329867E-02
   0.65050   0.10775116E-02
   0.65150   0.10242943E-02
   0.65250   0.97418082E-03
   0.65350   0.92762854E-03
   0.65450   0.88486768E-03
   0.65550   0.84601471E-03
   0.65650   0.81110495E-03
   0.65750   0.78008528E-03
   0.65850   0.75280946E-03
   0.65950   0.72905229E-03
   0.66050   0.70853607E-03
   0.66150   0.69095776E-03
   0.66250   0.67600963E-03
   0.66350   0.66339155E-03
   0.66450   0.65281766E-03
   0.66550   0.64402079E-03
   0.66650   0.63675566E-03
   0.66750   0.63080189E-03
   0.66850   0.62596559E-03
   0.66950   0.62208076E-03
   0.67050   0.61900885E-03
   0.67150   0.61663863E-03
   0.67250   0.61488582E-03
   0.67350   0.61369257E-03
   0.67450   0.61302714E-03
   0.67550   0.61288429E-03
   0.67650   0.61328575E-03
   0.67750   0.61428279E-03
   0.67850   0.61596121E-03
   0.67950   0.61844970E-03
   0.68050   0.62193215E-03
   0.68150   0.62666269E-03
   0.68250   0.63297688E-03
   0.68350   0.64127444E-03
   0.68450   0.65185281E-03
   0.68550   0.66393509E-03
   0.68650   0.66972186E-03
   0.68750   0.63650269E-03
   0.68850   0.56839443E-03
   0.68950   0.50657004E-03
   0.69050   0.45633432E-03
   0.69150   0.41533806E-03
   0.69250   0.38141437E-03
   0.69350   0.35303808E-03
   0.69450   0.32915364E-03
   0.69550   0.30902281E-03
   0.69650   0.29212655E-03
   0.69750   0.27810535E-03
   0.69850   0.26672365E-03
   0.69950   0.25785167E-03
   0.70050   0.25146003E-03
   0.70150   0.24762360E-03
   0.70250   0.24651748E-03
   0.70350   0.24828603E-03
   0.70450   0.25188876E-03
   0.70550   0.24920396E-03
   0.70650   0.23478246E-03
   0.70750   0.21991941E-03
   0.70850   0.20764794E-03
   0.70950   0.19765628E-03
   0.71050   0.18943437E-03
   0.71150   0.18258484E-03
   0.71250   0.17681331E-03
   0.71350   0.17189815E-03
   0.71450   0.16766868E-03
   0.71550   0.16399140E-03
   0.71650   0.16076182E-03
   0.71750   0.15789983E-03
   0.71850   0.15534772E-03
   0.71950   0.15307029E-03
   0.72050   0.15105765E-03
   0.72150   0.14933186E-03
   0.72250   0.14796080E-03
   0.72350   0.14708930E-03
   0.72450   0.14701314E-03
   0.72550   0.14837990E-03
   0.72650   0.15282091E-03
   0.72750   0.16528956E-03
   0.72850   0.20334285E-03
   0.72950   0.30720813E-03
   0.73050   0.30841638E-03
   0.73150   0.30918905E-03
   0.73250   0.42380035E-03
   0.73350   0.66088978E-03
   0.73450   0.13958317E-02
   0.73550   0.48524383E-02
   0.73650   0.38115412E-02
   0.73750   0.78993192E-03
   0.73850   0.42028539E-02
   0.73950   0.32900840E-02
   0.74050   0.54655634E-02
   0.74150   0.36199369E-01
   0.74250   0.41466847E-01
   0.74350   0.11873168E-01
   0.74450   0.76759760E-02
   0.74550   0.59661632E-02
   0.74650   0.63600671E-02
   0.74750   0.68646790E-02
   0.74850   0.71180728E-02
   0.74950   0.71405959E-02
   0.75050   0.71209003E-02
   0.75150   0.75238231E-02
   0.75250   0.77337339E-02
   0.75350   0.78041535E-02
   0.75450   0.79554841E-02
   0.75550   0.81882989E-02
   0.75650   0.82202321E-02
   0.75750   0.78523718E-02
   0.75850   0.72958884E-02
   0.75950   0.67702807E-02
   0.76050   0.62885061E-02
   0.76150   0.58040260E-02
   0.76250   0.53265183E-02
   0.76350   0.49010911E-02
   0.76450   0.45555197E-02
   0.76550   0.42937095E-02
   0.76650   0.41131284E-02
   0.76750   0.40117805E-02
   0.76850   0.39828382E-02
   0.76950   0.40105321E-02
   0.77050   0.40734475E-02
   0.77150   0.41514849E-02
   0.77250   0.42304001E-02
   0.77350   0.43016709E-02
   0.77450   0.43600835E-02
   0.77550   0.44023166E-02
   0.77650   0.44274325E-02
   0.77750   0.44378773E-02
   0.77850   0.44392026E-02
   0.77950   0.44378545E-02
   0.78050   0.44366717E-02
   0.78150   0.44204979E-02
   0.78250   0.43284032E-02
   0.78350   0.41849674E-02
   0.78450   0.40555038E-02
   0.78550   0.39453604E-02
   0.78650   0.38502503E-02
   0.78750   0.37662676E-02
   0.78850   0.36900660E-02
   0.78950   0.36185510E-02
   0.79050   0.35488692E-02
   0.79150   0.34785985E-02
   0.79250   0.34059808E-02
   0.79350   0.33300668E-02
   0.79450   0.32507081E-02
   0.79550   0.31683955E-02
   0.79650   0.30840104E-02
   0.79750   0.29985828E-02
   0.79850   0.29131244E-02
   0.79950   0.28285678E-02
   0.80050   0.27457862E-02
   0.80150   0.26656524E-02
   0.80250   0.25890942E-02
   0.80350   0.25171125E-02
   0.80450   0.24507530E-02
   0.80550   0.23910415E-02
   0.80650   0.23389035E-02
   0.80750   0.22950941E-02
   0.80850   0.22601527E-02
   0.80950   0.22343893E-02
   0.81050   0.22179028E-02
   0.81150   0.22106220E-02
   0.81250   0.22123654E-02
   0.81350   0.22229028E-02
   0.81450   0.22420096E-02
   0.81550   0.22694941E-02
   0.81650   0.23052075E-02
   0.81750   0.23490302E-02
   0.81850   0.24008583E-02
   0.81950   0.24605982E-02
   0.82050   0.25281855E-02
   0.82150   0.26036375E-02
   0.82250   0.26871702E-02
   0.82350   0.27795297E-02
   0.82450   0.28834543E-02
   0.82550   0.30101354E-02
   0.82650   0.31778780E-02
   0.82750   0.16494205E-01
   0.82850   0.12339060E-01
   0.82950   0.15528621E-01
   0.83050   0.17385155E-01
   0.83150   0.21329427E-01
   0.83250   0.23184892E-01
   0.83350   0.21326596E-01
   0.83450   0.19918500E-01
   0.83550   0.21489097E-01
   0.83650   0.29826965E-01
   0.83750   0.64701520E-01
   0.83850   0.73004529E-01
   0.83950   0.59542257E-01
   0.84050   0.60750864E-01
   0.84150   0.30183535E-01
   0.84250   0.25499545E-01
   0.84350   0.41588165E-01
   0.84450   0.46025675E-01
   0.84550   0.41511770E-01
   0.84650   0.43598365E-01
   0.84750   0.51853810E-01
   0.84850   0.63064717E-01
   0.84950   0.71536019E-01
   0.85050   0.85794240E-01
   0.85150   0.93783744E-01
   0.85250   0.89670628E-01
   0.85350   0.86362146E-01
   0.85450   0.84361985E-01
   0.85550   0.83155394E-01
   0.85650   0.82500204E-01
   0.85750   0.82139187E-01
   0.85850   0.81765547E-01
   0.85950   0.81046306E-01
   0.86050   0.79506502E-01
   0.86150   0.76765634E-01
   0.86250   0.72975211E-01
   0.86350   0.68761818E-01
   0.86450   0.64737760E-01
   0.86550   0.61200306E-01
   0.86650   0.58169145E-01
   0.86750   0.55538170E-01
   0.86850   0.53192668E-01
   0.86950   0.51062379E-01
   0.87050   0.49123000E-01
   0.87150   0.47372494E-01
   0.87250   0.45808353E-01
   0.87350   0.44417232E-01
   0.87450   0.43174800E-01
   0.87550   0.42051073E-01
   0.87650   0.41018710E-01
   0.87750   0.40061463E-01
   0.87850   0.39178502E-01
   0.87950   0.38381781E-01
   0.88050   0.37688568E-01
   0.88150   0.37113972E-01
   0.88250   0.36666922E-01
   0.88350   0.36349781E-01
   0.88450   0.36159918E-01
   0.88550   0.36091544E-01
   0.88650   0.36136869E-01
   0.88750   0.36286563E-01
   0.88850   0.36529902E-01
   0.88950   0.36855008E-01
   0.89050   0.37249293E-01
   0.89150   0.37699919E-01
   0.89250   0.38194090E-01
   0.89350   0.38719136E-01
   0.89450   0.39262630E-01
   0.89550   0.39812997E-01
   0.89650   0.40361129E-01
   0.89750   0.40903419E-01
   0.89850   0.41446857E-01
   0.89950   0.42019404E-01
   0.90050   0.42696733E-01
   0.90150   0.43570049E-01
   0.90250   0.44597946E-01
   0.90350   0.45792490E-01
   0.90450   0.47294989E-01
   0.90550   0.50217420E-01
   0.90650   0.76691620E-01
   0.90750   0.56931306E-01
   0.90850   0.59320360E-01
   0.90950   0.64011708E-01
   0.91050   0.68033747E-01
   0.91150   0.69349021E-01
   0.91250   0.73261231E-01
   0.91350   0.82484402E-01
   0.91450   0.93417957E-01
   0.91550   0.10365617E+00
   0.91650   0.11367202E+00
   0.91750   0.11007642E+00
   0.91850   0.94767772E-01
   0.91950   0.91071300E-01
   0.92050   0.94993331E-01
   0.92150   0.10407039E+00
   0.92250   0.12078350E+00
   0.92350   0.15068206E+00
   0.92450   0.18629993E+00
   0.92550   0.20004144E+00
   0.92650   0.20893976E+00
   0.92750   0.22729501E+00
   0.92850   0.23453811E+00
   0.92950   0.23406839E+00
   0.93050   0.25552854E+00
   0.93150   0.29147890E+00
   0.93250   0.32571149E+00
   0.93350   0.35039911E+00
   0.93450   0.36290732E+00
   0.93550   0.36796227E+00
   0.93650   0.37479213E+00
   0.93750   0.38721299E+00
   0.93850   0.40036178E+00
   0.93950   0.40240532E+00
   0.94050   0.38638037E+00
   0.94150   0.36375868E+00
   0.94250   0.34782010E+00
   0.94350   0.34149110E+00
   0.94450   0.34277573E+00
   0.94550   0.34857783E+00
   0.94650   0.35572770E+00
   0.94750   0.36267880E+00
   0.94850   0.37000790E+00
   0.94950   0.37931773E+00
   0.95050   0.39129490E+00
   0.95150   0.40446386E+00
   0.95250   0.41568607E+00
   0.95350   0.42230818E+00
   0.95450   0.42404836E+00
   0.95550   0.42264327E+00
   0.95650   0.41980806E+00
   0.95750   0.41671044E+00
   0.95850   0.41527158E+00
   0.95950   0.41708601E+00
   0.96050   0.42300999E+00
   0.96150   0.43331227E+00
   0.96250   0.44788322E+00
   0.96350   0.46630242E+00
   0.96450   0.48777160E+00
   0.96550   0.51105416E+00
   0.96650   0.53462762E+00
   0.96750   0.55707109E+00
   0.96850   0.57733619E+00
   0.96950   0.59459013E+00
   0.97050   0.60788357E+00
   0.97150   0.61617070E+00
   0.97250   0.61875969E+00
   0.97350   0.61578447E+00
   0.97450   0.60847872E+00
   0.97550   0.59906894E+00
   0.97650   0.59025562E+00
   0.97750   0.58437479E+00
   0.97850   0.58274770E+00
   0.97950   0.58603692E+00
   0.98050   0.59456307E+00
   0.98150   0.60827547E+00
   0.98250   0.62632227E+00
   0.98350   0.64676636E+00
   0.98450   0.66693056E+00
   0.98550   0.68725747E+00
   0.98650   0.71148831E+00
   0.98750   0.73644370E+00
   0.98850   0.75635725E+00
   0.98950   0.77032661E+00
   0.99050   0.78077102E+00
   0.99150   0.79033560E+00
   0.99250   0.80084467E+00
   0.99350   0.81374830E+00
   0.99450   0.82887375E+00
   0.99550   0.84524685E+00
   0.99650   0.86095881E+00
   0.99750   0.87397146E+00
   0.99850   0.88400012E+00
   0.99950   0.89626896E+00
