# Transmission, k-averaged
# Date: 2021-05-13
#   E [eV]           T [G0]
   0.00050   0.83344713E-01
   0.00150   0.43238897E-01
   0.00250   0.12779617E-01
   0.00350   0.15494545E-01
   0.00450   0.36353573E-01
   0.00550   0.39191447E-01
   0.00650   0.21737739E-01
   0.00750   0.27845945E-01
   0.00850   0.35880119E-01
   0.00950   0.17304000E-01
   0.01050   0.32942872E-01
   0.01150   0.18715519E-01
   0.01250   0.14336423E-01
   0.01350   0.58748856E-01
   0.01450   0.10371750E-01
   0.01550   0.10498463E-01
   0.01650   0.69034867E-01
   0.01750   0.10579520E-01
   0.01850   0.52133892E-02
   0.01950   0.10158537E-01
   0.02050   0.73946290E-01
   0.02150   0.65915599E-02
   0.02250   0.31445792E-02
   0.02350   0.41295229E-02
   0.02450   0.22082658E-01
   0.02550   0.16177813E-01
   0.02650   0.30312592E-02
   0.02750   0.19108843E-02
   0.02850   0.25291420E-02
   0.02950   0.92807151E-02
   0.03050   0.33630133E-01
   0.03150   0.34315533E-02
   0.03250   0.15756869E-02
   0.03350   0.14157161E-02
   0.03450   0.22860663E-02
   0.03550   0.96551711E-02
   0.03650   0.26436459E-01
   0.03750   0.32334640E-02
   0.03850   0.14864828E-02
   0.03950   0.12396609E-02
   0.04050   0.16675037E-02
   0.04150   0.42321049E-02
   0.04250   0.33324681E-01
   0.04350   0.62360200E-02
   0.04450   0.19092388E-02
   0.04550   0.12332791E-02
   0.04650   0.12007699E-02
   0.04750   0.15328552E-02
   0.04850   0.23456051E-02
   0.04950   0.32354670E-02
   0.05050   0.26401747E-02
   0.05150   0.16423002E-02
   0.05250   0.11177178E-02
   0.05350   0.89833571E-03
   0.05450   0.84468146E-03
   0.05550   0.90767967E-03
   0.05650   0.10734634E-02
   0.05750   0.12945300E-02
   0.05850   0.14062406E-02
   0.05950   0.12727035E-02
   0.06050   0.10263338E-02
   0.06150   0.82720420E-03
   0.06250   0.71093679E-03
   0.06350   0.66480902E-03
   0.06450   0.67500625E-03
   0.06550   0.73194620E-03
   0.06650   0.81924594E-03
   0.06750   0.89616730E-03
   0.06850   0.90488157E-03
   0.06950   0.82983443E-03
   0.07050   0.71867264E-03
   0.07150   0.62129024E-03
   0.07250   0.55721099E-03
   0.07350   0.52766816E-03
   0.07450   0.52908878E-03
   0.07550   0.55691804E-03
   0.07650   0.60282787E-03
   0.07750   0.64886757E-03
   0.07850   0.66795939E-03
   0.07950   0.64266176E-03
   0.08050   0.58412296E-03
   0.08150   0.51939773E-03
   0.08250   0.46825747E-03
   0.08350   0.43835814E-03
   0.08450   0.43101655E-03
   0.08550   0.44569743E-03
   0.08650   0.48060596E-03
   0.08750   0.52958861E-03
   0.08850   0.57699694E-03
   0.08950   0.59893884E-03
   0.09050   0.58037747E-03
   0.09150   0.52833726E-03
   0.09250   0.45975685E-03
   0.09350   0.40673354E-03
   0.09450   0.38041361E-03
   0.09550   0.37422677E-03
   0.09650   0.38147107E-03
   0.09750   0.39522094E-03
   0.09850   0.40749644E-03
   0.09950   0.41109265E-03
   0.10050   0.40329731E-03
   0.10150   0.38731121E-03
   0.10250   0.36937429E-03
   0.10350   0.35498818E-03
   0.10450   0.34736187E-03
   0.10550   0.34768489E-03
   0.10650   0.35575405E-03
   0.10750   0.37024985E-03
   0.10850   0.38870060E-03
   0.10950   0.40755665E-03
   0.11050   0.42288512E-03
   0.11150   0.43175410E-03
   0.11250   0.43350240E-03
   0.11350   0.42984763E-03
   0.11450   0.42378582E-03
   0.11550   0.41823793E-03
   0.11650   0.41523256E-03
   0.11750   0.41568556E-03
   0.11850   0.41947412E-03
   0.11950   0.42557518E-03
   0.12050   0.43223190E-03
   0.12150   0.43723659E-03
   0.12250   0.43840893E-03
   0.12350   0.43419434E-03
   0.12450   0.42412215E-03
   0.12550   0.40885230E-03
   0.12650   0.38978492E-03
   0.12750   0.36848045E-03
   0.12850   0.34619003E-03
   0.12950   0.32364382E-03
   0.13050   0.30109237E-03
   0.13150   0.27856466E-03
   0.13250   0.25637329E-03
   0.13350   0.23596545E-03
   0.13450   0.22106734E-03
   0.13550   0.21834933E-03
   0.13650   0.23584458E-03
   0.13750   0.27838268E-03
   0.13850   0.34326088E-03
   0.13950   0.42032416E-03
   0.14050   0.49645611E-03
   0.14150   0.56130614E-03
   0.14250   0.61038835E-03
   0.14350   0.64421754E-03
   0.14450   0.66569669E-03
   0.14550   0.67809166E-03
   0.14650   0.68413647E-03
   0.14750   0.68585767E-03
   0.14850   0.68468321E-03
   0.14950   0.68160775E-03
   0.15050   0.67733380E-03
   0.15150   0.67237072E-03
   0.15250   0.66709652E-03
   0.15350   0.66179316E-03
   0.15450   0.65666443E-03
   0.15550   0.65184489E-03
   0.15650   0.64740574E-03
   0.15750   0.64336165E-03
   0.15850   0.63967967E-03
   0.15950   0.63629239E-03
   0.16050   0.63311314E-03
   0.16150   0.63005276E-03
   0.16250   0.62703522E-03
   0.16350   0.62400976E-03
   0.16450   0.62095723E-03
   0.16550   0.61788957E-03
   0.16650   0.61484124E-03
   0.16750   0.61185309E-03
   0.16850   0.60894800E-03
   0.16950   0.60609670E-03
   0.17050   0.60316466E-03
   0.17150   0.59981388E-03
   0.17250   0.59527636E-03
   0.17350   0.58770104E-03
   0.17450   0.57184027E-03
   0.17550   0.53287385E-03
   0.17650   0.47118257E-03
   0.17750   0.41978818E-03
   0.17850   0.38138783E-03
   0.17950   0.35153655E-03
   0.18050   0.32743069E-03
   0.18150   0.30742129E-03
   0.18250   0.29047945E-03
   0.18350   0.27592311E-03
   0.18450   0.26327634E-03
   0.18550   0.25219296E-03
   0.18650   0.24241242E-03
   0.18750   0.23373318E-03
   0.18850   0.22599591E-03
   0.18950   0.21907280E-03
   0.19050   0.21286031E-03
   0.19150   0.20727435E-03
   0.19250   0.20224700E-03
   0.19350   0.19772409E-03
   0.19450   0.19366355E-03
   0.19550   0.19003432E-03
   0.19650   0.18681552E-03
   0.19750   0.18399618E-03
   0.19850   0.18157544E-03
   0.19950   0.17956358E-03
   0.20050   0.17798405E-03
   0.20150   0.17687741E-03
   0.20250   0.17630818E-03
   0.20350   0.17637671E-03
   0.20450   0.17724010E-03
   0.20550   0.17915010E-03
   0.20650   0.18252495E-03
   0.20750   0.18809343E-03
   0.20850   0.19720585E-03
   0.20950   0.21256595E-03
   0.21050   0.24013912E-03
   0.21150   0.29466802E-03
   0.21250   0.41552211E-03
   0.21350   0.66607160E-03
   0.21450   0.79488987E-03
   0.21550   0.56588656E-03
   0.21650   0.36776494E-03
   0.21750   0.29520868E-03
   0.21850   0.27886266E-03
   0.21950   0.27389190E-03
   0.22050   0.27057005E-03
   0.22150   0.26812940E-03
   0.22250   0.26653908E-03
   0.22350   0.26580979E-03
   0.22450   0.26595488E-03
   0.22550   0.26699968E-03
   0.22650   0.26899148E-03
   0.22750   0.27200903E-03
   0.22850   0.27617396E-03
   0.22950   0.28166737E-03
   0.23050   0.28875424E-03
   0.23150   0.29781385E-03
   0.23250   0.30932861E-03
   0.23350   0.32338378E-03
   0.23450   0.33508480E-03
   0.23550   0.32941208E-03
   0.23650   0.31372349E-03
   0.23750   0.29779336E-03
   0.23850   0.28329753E-03
   0.23950   0.27028722E-03
   0.24050   0.25857927E-03
   0.24150   0.24798271E-03
   0.24250   0.23833549E-03
   0.24350   0.22950572E-03
   0.24450   0.22138678E-03
   0.24550   0.21389191E-03
   0.24650   0.20694984E-03
   0.24750   0.20050147E-03
   0.24850   0.19449717E-03
   0.24950   0.18889482E-03
   0.25050   0.18365822E-03
   0.25150   0.17875594E-03
   0.25250   0.17416038E-03
   0.25350   0.16984702E-03
   0.25450   0.16579397E-03
   0.25550   0.16198156E-03
   0.25650   0.15839197E-03
   0.25750   0.15500905E-03
   0.25850   0.15181820E-03
   0.25950   0.14880614E-03
   0.26050   0.14596086E-03
   0.26150   0.14327158E-03
   0.26250   0.14072857E-03
   0.26350   0.13832313E-03
   0.26450   0.13604746E-03
   0.26550   0.13389463E-03
   0.26650   0.13185847E-03
   0.26750   0.12993341E-03
   0.26850   0.12811449E-03
   0.26950   0.12639722E-03
   0.27050   0.12477746E-03
   0.27150   0.12325146E-03
   0.27250   0.12181570E-03
   0.27350   0.12046688E-03
   0.27450   0.11920190E-03
   0.27550   0.11801782E-03
   0.27650   0.11691187E-03
   0.27750   0.11588143E-03
   0.27850   0.11492408E-03
   0.27950   0.11403753E-03
   0.28050   0.11321974E-03
   0.28150   0.11246882E-03
   0.28250   0.11178312E-03
   0.28350   0.11116113E-03
   0.28450   0.11060153E-03
   0.28550   0.11010303E-03
   0.28650   0.10966435E-03
   0.28750   0.10928396E-03
   0.28850   0.10895990E-03
   0.28950   0.10868921E-03
   0.29050   0.10846725E-03
   0.29150   0.10828628E-03
   0.29250   0.10813280E-03
   0.29350   0.10798231E-03
   0.29450   0.10778746E-03
   0.29550   0.10744886E-03
   0.29650   0.10673030E-03
   0.29750   0.10496249E-03
   0.29850   0.99951139E-04
   0.29950   0.88960296E-04
   0.30050   0.77908029E-04
   0.30150   0.69555965E-04
   0.30250   0.63140993E-04
   0.30350   0.58018886E-04
   0.30450   0.53803895E-04
   0.30550   0.50257178E-04
   0.30650   0.47222169E-04
   0.30750   0.44590990E-04
   0.30850   0.42286261E-04
   0.30950   0.40250634E-04
   0.31050   0.38440478E-04
   0.31150   0.36821879E-04
   0.31250   0.35368001E-04
   0.31350   0.34057299E-04
   0.31450   0.32872278E-04
   0.31550   0.31798594E-04
   0.31650   0.30824427E-04
   0.31750   0.29939982E-04
   0.31850   0.29137160E-04
   0.31950   0.28409295E-04
   0.32050   0.27750970E-04
   0.32150   0.27157892E-04
   0.32250   0.26626825E-04
   0.32350   0.26155563E-04
   0.32450   0.25742978E-04
   0.32550   0.25389114E-04
   0.32650   0.25095376E-04
   0.32750   0.24864836E-04
   0.32850   0.24702704E-04
   0.32950   0.24617060E-04
   0.33050   0.24619978E-04
   0.33150   0.24729290E-04
   0.33250   0.24971430E-04
   0.33350   0.25386091E-04
   0.33450   0.26034179E-04
   0.33550   0.27011807E-04
   0.33650   0.28475999E-04
   0.33750   0.30693776E-04
   0.33850   0.34139222E-04
   0.33950   0.39685747E-04
   0.34050   0.48934187E-04
   0.34150   0.64178821E-04
   0.34250   0.82208622E-04
   0.34350   0.65467153E-04
   0.34450   0.57709360E-04
   0.34550   0.78500096E-04
   0.34650   0.64973196E-04
   0.34750   0.50976345E-04
   0.34850   0.41930529E-04
   0.34950   0.36299854E-04
   0.35050   0.32702897E-04
   0.35150   0.30331466E-04
   0.35250   0.28730497E-04
   0.35350   0.27637439E-04
   0.35450   0.26895272E-04
   0.35550   0.26406851E-04
   0.35650   0.26110551E-04
   0.35750   0.25966980E-04
   0.35850   0.25951957E-04
   0.35950   0.26053940E-04
   0.36050   0.26277590E-04
   0.36150   0.26666145E-04
   0.36250   0.27380975E-04
   0.36350   0.28495797E-04
   0.36450   0.29625349E-04
   0.36550   0.30688454E-04
   0.36650   0.31732372E-04
   0.36750   0.32797543E-04
   0.36850   0.33914901E-04
   0.36950   0.35110777E-04
   0.37050   0.36410373E-04
   0.37150   0.37840189E-04
   0.37250   0.39430230E-04
   0.37350   0.41216383E-04
   0.37450   0.43243530E-04
   0.37550   0.45569992E-04
   0.37650   0.48274429E-04
   0.37750   0.51466963E-04
   0.37850   0.55307391E-04
   0.37950   0.60031289E-04
   0.38050   0.65941575E-04
   0.38150   0.72814153E-04
   0.38250   0.76654920E-04
   0.38350   0.75529926E-04
   0.38450   0.73122697E-04
   0.38550   0.70673028E-04
   0.38650   0.68411115E-04
   0.38750   0.66368077E-04
   0.38850   0.64532309E-04
   0.38950   0.62884115E-04
   0.39050   0.61404353E-04
   0.39150   0.60076487E-04
   0.39250   0.58886832E-04
   0.39350   0.57824291E-04
   0.39450   0.56880028E-04
   0.39550   0.56047164E-04
   0.39650   0.55320543E-04
   0.39750   0.54696549E-04
   0.39850   0.54172997E-04
   0.39950   0.53749041E-04
   0.40050   0.53425170E-04
   0.40150   0.53203188E-04
   0.40250   0.53086238E-04
   0.40350   0.53078835E-04
   0.40450   0.53186832E-04
   0.40550   0.53417309E-04
   0.40650   0.53778145E-04
   0.40750   0.54277021E-04
   0.40850   0.54918910E-04
   0.40950   0.55700162E-04
   0.41050   0.56593537E-04
   0.41150   0.57507066E-04
   0.41250   0.58154008E-04
   0.41350   0.57598245E-04
   0.41450   0.53982210E-04
   0.41550   0.49795995E-04
   0.41650   0.47783273E-04
   0.41750   0.47604797E-04
   0.41850   0.48914993E-04
   0.41950   0.51542971E-04
   0.42050   0.55221550E-04
   0.42150   0.59041457E-04
   0.42250   0.60264276E-04
   0.42350   0.52864634E-04
   0.42450   0.31260239E-04
   0.42550   0.66951957E-05
   0.42650   0.12208504E-05
   0.42750   0.90306812E-05
   0.42850   0.15006048E-04
   0.42950   0.16580885E-04
   0.43050   0.15898957E-04
   0.43150   0.14537452E-04
   0.43250   0.13162088E-04
   0.43350   0.11982657E-04
   0.43450   0.11033334E-04
   0.43550   0.10291647E-04
   0.43650   0.97226239E-05
   0.43750   0.92934279E-05
   0.43850   0.89771902E-05
   0.43950   0.87531880E-05
   0.44050   0.86059881E-05
   0.44150   0.85244728E-05
   0.44250   0.85010279E-05
   0.44350   0.85309775E-05
   0.44450   0.86122400E-05
   0.44550   0.87452026E-05
   0.44650   0.89328169E-05
   0.44750   0.91808997E-05
   0.44850   0.94986826E-05
   0.44950   0.98996425E-05
   0.45050   0.10402637E-04
   0.45150   0.11033375E-04
   0.45250   0.11826100E-04
   0.45350   0.12825095E-04
   0.45450   0.14084799E-04
   0.45550   0.15665526E-04
   0.45650   0.17617862E-04
   0.45750   0.19942472E-04
   0.45850   0.22511211E-04
   0.45950   0.24994877E-04
   0.46050   0.27169563E-04
   0.46150   0.30691899E-04
   0.46250   0.41486383E-04
   0.46350   0.62523235E-04
   0.46450   0.82017497E-04
   0.46550   0.88435190E-04
   0.46650   0.83673265E-04
   0.46750   0.74244941E-04
   0.46850   0.64346321E-04
   0.46950   0.55614240E-04
   0.47050   0.48393944E-04
   0.47150   0.42559685E-04
   0.47250   0.37869300E-04
   0.47350   0.34088425E-04
   0.47450   0.31023661E-04
   0.47550   0.28524420E-04
   0.47650   0.26475982E-04
   0.47750   0.24791489E-04
   0.47850   0.23405082E-04
   0.47950   0.22266604E-04
   0.48050   0.21337626E-04
   0.48150   0.20588575E-04
   0.48250   0.19996662E-04
   0.48350   0.19544485E-04
   0.48450   0.19219371E-04
   0.48550   0.19013911E-04
   0.48650   0.18929613E-04
   0.48750   0.18990957E-04
   0.48850   0.19302235E-04
   0.48950   0.20344483E-04
   0.49050   0.25421537E-04
   0.49150   0.79898899E-04
   0.49250   0.74465293E-04
   0.49350   0.40506035E-04
   0.49450   0.34153971E-04
   0.49550   0.32595533E-04
   0.49650   0.32516520E-04
   0.49750   0.32956850E-04
   0.49850   0.33351113E-04
   0.49950   0.32324984E-04
   0.50050   0.27279388E-04
   0.50150   0.17284767E-04
   0.50250   0.12479084E-04
   0.50350   0.43144901E-04
   0.50450   0.13473396E-03
   0.50550   0.26679219E-03
   0.50650   0.38899688E-03
   0.50750   0.46404431E-03
   0.50850   0.48646820E-03
   0.50950   0.50090067E-03
   0.51050   0.66601922E-03
   0.51150   0.11621757E-02
   0.51250   0.16156939E-02
   0.51350   0.14634929E-02
   0.51450   0.13981384E-02
   0.51550   0.40945825E-02
   0.51650   0.22212672E-02
   0.51750   0.22379651E-02
   0.51850   0.55116126E-02
   0.51950   0.23785208E-02
   0.52050   0.14129137E-02
   0.52150   0.17502583E-02
   0.52250   0.16769310E-02
   0.52350   0.22737179E-02
   0.52450   0.29442327E-02
   0.52550   0.32154627E-02
   0.52650   0.29924053E-02
   0.52750   0.26053174E-02
   0.52850   0.23403568E-02
   0.52950   0.21803610E-02
   0.53050   0.21548646E-02
   0.53150   0.22203259E-02
   0.53250   0.22389360E-02
   0.53350   0.20737732E-02
   0.53450   0.18079402E-02
   0.53550   0.15546962E-02
   0.53650   0.13165346E-02
   0.53750   0.11035724E-02
   0.53850   0.92363713E-03
   0.53950   0.77315525E-03
   0.54050   0.64531266E-03
   0.54150   0.53708395E-03
   0.54250   0.44863345E-03
   0.54350   0.37956642E-03
   0.54450   0.32739498E-03
   0.54550   0.28856943E-03
   0.54650   0.25989508E-03
   0.54750   0.23910830E-03
   0.54850   0.22467758E-03
   0.54950   0.21537826E-03
   0.55050   0.21005218E-03
   0.55150   0.20761295E-03
   0.55250   0.20716542E-03
   0.55350   0.20810863E-03
   0.55450   0.21014732E-03
   0.55550   0.21319804E-03
   0.55650   0.21724100E-03
   0.55750   0.22220002E-03
   0.55850   0.22790840E-03
   0.55950   0.23416233E-03
   0.56050   0.24081695E-03
   0.56150   0.24786350E-03
   0.56250   0.25544682E-03
   0.56350   0.26382689E-03
   0.56450   0.27332679E-03
   0.56550   0.28431899E-03
   0.56650   0.29728343E-03
   0.56750   0.31294121E-03
   0.56850   0.33242852E-03
   0.56950   0.35739166E-03
   0.57050   0.38960378E-03
   0.57150   0.42878211E-03
   0.57250   0.46544144E-03
   0.57350   0.46956522E-03
   0.57450   0.40884639E-03
   0.57550   0.31274513E-03
   0.57650   0.23664568E-03
   0.57750   0.18981355E-03
   0.57850   0.16125011E-03
   0.57950   0.14249115E-03
   0.58050   0.12902050E-03
   0.58150   0.11852720E-03
   0.58250   0.10981117E-03
   0.58350   0.10223003E-03
   0.58450   0.95424977E-04
   0.58550   0.89185713E-04
   0.58650   0.83385436E-04
   0.58750   0.77949488E-04
   0.58850   0.72838993E-04
   0.58950   0.68040055E-04
   0.59050   0.63554588E-04
   0.59150   0.59392132E-04
   0.59250   0.55563280E-04
   0.59350   0.52075306E-04
   0.59450   0.48930298E-04
   0.59550   0.46125275E-04
   0.59650   0.43653534E-04
   0.59750   0.41506435E-04
   0.59850   0.39674895E-04
   0.59950   0.38150367E-04
   0.60050   0.36925234E-04
   0.60150   0.35992740E-04
   0.60250   0.35346744E-04
   0.60350   0.34981462E-04
   0.60450   0.34891400E-04
   0.60550   0.35071542E-04
   0.60650   0.35517871E-04
   0.60750   0.36228281E-04
   0.60850   0.37203914E-04
   0.60950   0.38450984E-04
   0.61050   0.39983082E-04
   0.61150   0.41824034E-04
   0.61250   0.44011285E-04
   0.61350   0.46599667E-04
   0.61450   0.49663820E-04
   0.61550   0.53288437E-04
   0.61650   0.57475590E-04
   0.61750   0.61464722E-04
   0.61850   0.61641527E-04
   0.61950   0.58149180E-04
   0.62050   0.54747848E-04
   0.62150   0.52205429E-04
   0.62250   0.50860763E-04
   0.62350   0.50548715E-04
   0.62450   0.50479455E-04
   0.62550   0.50506696E-04
   0.62650   0.50633425E-04
   0.62750   0.50858620E-04
   0.62850   0.51173876E-04
   0.62950   0.51567309E-04
   0.63050   0.52025847E-04
   0.63150   0.52536445E-04
   0.63250   0.53086700E-04
   0.63350   0.53665106E-04
   0.63450   0.54261152E-04
   0.63550   0.54865261E-04
   0.63650   0.55468729E-04
   0.63750   0.56063669E-04
   0.63850   0.56643032E-04
   0.63950   0.57200683E-04
   0.64050   0.57731533E-04
   0.64150   0.58231668E-04
   0.64250   0.58698421E-04
   0.64350   0.59130358E-04
   0.64450   0.59527116E-04
   0.64550   0.59889157E-04
   0.64650   0.60217430E-04
   0.64750   0.60513041E-04
   0.64850   0.60776976E-04
   0.64950   0.61009923E-04
   0.65050   0.61212319E-04
   0.65150   0.61384475E-04
   0.65250   0.61526960E-04
   0.65350   0.61640989E-04
   0.65450   0.61728846E-04
   0.65550   0.61794242E-04
   0.65650   0.61842489E-04
   0.65750   0.61880513E-04
   0.65850   0.61916595E-04
   0.65950   0.61960018E-04
   0.66050   0.62020510E-04
   0.66150   0.62107800E-04
   0.66250   0.62231127E-04
   0.66350   0.62398954E-04
   0.66450   0.62618921E-04
   0.66550   0.62897903E-04
   0.66650   0.63242434E-04
   0.66750   0.63659129E-04
   0.66850   0.64155385E-04
   0.66950   0.64739979E-04
   0.67050   0.65423737E-04
   0.67150   0.66220033E-04
   0.67250   0.67145229E-04
   0.67350   0.68218949E-04
   0.67450   0.69464273E-04
   0.67550   0.70907947E-04
   0.67650   0.72580675E-04
   0.67750   0.74517637E-04
   0.67850   0.76759359E-04
   0.67950   0.79353136E-04
   0.68050   0.82354927E-04
   0.68150   0.85831787E-04
   0.68250   0.89863272E-04
   0.68350   0.94536706E-04
   0.68450   0.99911311E-04
   0.68550   0.10582288E-03
   0.68650   0.11075554E-03
   0.68750   0.10872174E-03
   0.68850   0.10066111E-03
   0.68950   0.93773262E-04
   0.69050   0.88933208E-04
   0.69150   0.85801832E-04
   0.69250   0.84144456E-04
   0.69350   0.84168125E-04
   0.69450   0.94968840E-04
   0.69550   0.41964845E-03
   0.69650   0.12366091E-03
   0.69750   0.11981535E-03
   0.69850   0.12984710E-03
   0.69950   0.14802230E-03
   0.70050   0.17607342E-03
   0.70150   0.21892636E-03
   0.70250   0.28659211E-03
   0.70350   0.40058006E-03
   0.70450   0.60580735E-03
   0.70550   0.88436983E-03
   0.70650   0.77608728E-03
   0.70750   0.51436020E-03
   0.70850   0.44052367E-03
   0.70950   0.61698526E-03
   0.71050   0.63526896E-02
   0.71150   0.97665074E-03
   0.71250   0.11004179E-02
   0.71350   0.83640506E-02
   0.71450   0.34466043E-01
   0.71550   0.46759993E-02
   0.71650   0.20834778E-02
   0.71750   0.19317784E-02
   0.71850   0.14465890E-02
   0.71950   0.10547416E-02
   0.72050   0.85393660E-03
   0.72150   0.70299767E-03
   0.72250   0.56714733E-03
   0.72350   0.46772850E-03
   0.72450   0.41060336E-03
   0.72550   0.38246781E-03
   0.72650   0.36731179E-03
   0.72750   0.35500521E-03
   0.72850   0.34145595E-03
   0.72950   0.32609591E-03
   0.73050   0.30976173E-03
   0.73150   0.29374723E-03
   0.73250   0.27999270E-03
   0.73350   0.26910062E-03
   0.73450   0.25953091E-03
   0.73550   0.25119632E-03
   0.73650   0.24439764E-03
   0.73750   0.23939456E-03
   0.73850   0.23633930E-03
   0.73950   0.23523931E-03
   0.74050   0.23594184E-03
   0.74150   0.23814717E-03
   0.74250   0.24144826E-03
   0.74350   0.24538726E-03
   0.74450   0.24951447E-03
   0.74550   0.25343752E-03
   0.74650   0.25685498E-03
   0.74750   0.25957430E-03
   0.74850   0.26151555E-03
   0.74950   0.26270261E-03
   0.75050   0.26324243E-03
   0.75150   0.26329682E-03
   0.75250   0.26305387E-03
   0.75350   0.26270669E-03
   0.75450   0.26244330E-03
   0.75550   0.26244574E-03
   0.75650   0.26289246E-03
   0.75750   0.26395879E-03
   0.75850   0.26581332E-03
   0.75950   0.26861235E-03
   0.76050   0.27249541E-03
   0.76150   0.27758471E-03
   0.76250   0.28398837E-03
   0.76350   0.29180534E-03
   0.76450   0.30112936E-03
   0.76550   0.31205011E-03
   0.76650   0.32465049E-03
   0.76750   0.33900171E-03
   0.76850   0.35515634E-03
   0.76950   0.37314196E-03
   0.77050   0.39295515E-03
   0.77150   0.41455671E-03
   0.77250   0.43786853E-03
   0.77350   0.46277227E-03
   0.77450   0.48911071E-03
   0.77550   0.51669270E-03
   0.77650   0.54530136E-03
   0.77750   0.57470432E-03
   0.77850   0.60465134E-03
   0.77950   0.63479401E-03
   0.78050   0.66414353E-03
   0.78150   0.68756717E-03
   0.78250   0.68678678E-03
   0.78350   0.66445279E-03
   0.78450   0.63855841E-03
   0.78550   0.61228639E-03
   0.78650   0.58568962E-03
   0.78750   0.55868924E-03
   0.78850   0.53134182E-03
   0.78950   0.50381606E-03
   0.79050   0.47635072E-03
   0.79150   0.44922277E-03
   0.79250   0.42272478E-03
   0.79350   0.39715020E-03
   0.79450   0.37278427E-03
   0.79550   0.34989908E-03
   0.79650   0.32875131E-03
   0.79750   0.30958146E-03
   0.79850   0.29261349E-03
   0.79950   0.27805424E-03
   0.80050   0.26609207E-03
   0.80150   0.25689538E-03
   0.80250   0.25061073E-03
   0.80350   0.24736166E-03
   0.80450   0.24724787E-03
   0.80550   0.25034489E-03
   0.80650   0.25670457E-03
   0.80750   0.26635538E-03
   0.80850   0.27930262E-03
   0.80950   0.29552900E-03
   0.81050   0.31499506E-03
   0.81150   0.33764029E-03
   0.81250   0.36338528E-03
   0.81350   0.39213491E-03
   0.81450   0.42378283E-03
   0.81550   0.45821597E-03
   0.81650   0.49531949E-03
   0.81750   0.53498067E-03
   0.81850   0.57709316E-03
   0.81950   0.62156259E-03
   0.82050   0.66832069E-03
   0.82150   0.71736315E-03
   0.82250   0.76885859E-03
   0.82350   0.82349475E-03
   0.82450   0.88379224E-03
   0.82550   0.95944077E-03
   0.82650   0.10657782E-02
   0.82750   0.11871996E-02
   0.82850   0.13157424E-02
   0.82950   0.14557580E-02
   0.83050   0.16135941E-02
   0.83150   0.17979568E-02
   0.83250   0.20251621E-02
   0.83350   0.23641111E-02
   0.83450   0.43343818E-02
   0.83550   0.47298982E-02
   0.83650   0.39929822E-02
   0.83750   0.45431047E-02
   0.83850   0.54120310E-02
   0.83950   0.70563257E-02
   0.84050   0.10411186E-01
   0.84150   0.14953345E-01
   0.84250   0.13643179E-01
   0.84350   0.99665057E-02
   0.84450   0.92252484E-02
   0.84550   0.13667561E-01
   0.84650   0.23808641E-01
   0.84750   0.64014122E-01
   0.84850   0.14211968E+00
   0.84950   0.20739755E+00
   0.85050   0.20735873E+00
   0.85150   0.87300412E-01
   0.85250   0.28285641E-01
   0.85350   0.22507209E-01
   0.85450   0.19424513E-01
   0.85550   0.15303938E-01
   0.85650   0.12787109E-01
   0.85750   0.11475083E-01
   0.85850   0.10655073E-01
   0.85950   0.10145557E-01
   0.86050   0.99286661E-02
   0.86150   0.99557033E-02
   0.86250   0.10130650E-01
   0.86350   0.10366661E-01
   0.86450   0.10632118E-01
   0.86550   0.10943608E-01
   0.86650   0.11334825E-01
   0.86750   0.11835286E-01
   0.86850   0.12458590E-01
   0.86950   0.13197723E-01
   0.87050   0.14031400E-01
   0.87150   0.14936963E-01
   0.87250   0.15898209E-01
   0.87350   0.16903108E-01
   0.87450   0.17935302E-01
   0.87550   0.18965743E-01
   0.87650   0.19950535E-01
   0.87750   0.20839458E-01
   0.87850   0.21593843E-01
   0.87950   0.22203883E-01
   0.88050   0.22692572E-01
   0.88150   0.23102172E-01
   0.88250   0.23472546E-01
   0.88350   0.23825495E-01
   0.88450   0.24163207E-01
   0.88550   0.24478987E-01
   0.88650   0.24771446E-01
   0.88750   0.25052113E-01
   0.88850   0.25342118E-01
   0.88950   0.25662147E-01
   0.89050   0.26023604E-01
   0.89150   0.26426299E-01
   0.89250   0.26863152E-01
   0.89350   0.27328992E-01
   0.89450   0.27828503E-01
   0.89550   0.28378563E-01
   0.89650   0.29003419E-01
   0.89750   0.29725773E-01
   0.89850   0.30559817E-01
   0.89950   0.31516053E-01
   0.90050   0.32642648E-01
   0.90150   0.33961780E-01
   0.90250   0.35223536E-01
   0.90350   0.36427654E-01
   0.90450   0.37590254E-01
   0.90550   0.38699757E-01
   0.90650   0.39782092E-01
   0.90750   0.40885776E-01
   0.90850   0.42062946E-01
   0.90950   0.43355573E-01
   0.91050   0.44789597E-01
   0.91150   0.46377067E-01
   0.91250   0.48124809E-01
   0.91350   0.50046302E-01
   0.91450   0.52170947E-01
   0.91550   0.54545324E-01
   0.91650   0.57226274E-01
   0.91750   0.60270369E-01
   0.91850   0.63723609E-01
   0.91950   0.67611136E-01
   0.92050   0.71925402E-01
   0.92150   0.76614864E-01
   0.92250   0.81581622E-01
   0.92350   0.86698927E-01
   0.92450   0.91849715E-01
   0.92550   0.96966483E-01
   0.92650   0.10204713E+00
   0.92750   0.10714553E+00
   0.92850   0.11236198E+00
   0.92950   0.11785802E+00
   0.93050   0.12391230E+00
   0.93150   0.13104953E+00
   0.93250   0.14026366E+00
   0.93350   0.15033275E+00
   0.93450   0.12438913E+00
   0.93550   0.13798442E+00
   0.93650   0.15151840E+00
   0.93750   0.13953149E+00
   0.93850   0.14639755E+00
   0.93950   0.16437319E+00
   0.94050   0.20105037E+00
   0.94150   0.23472615E+00
   0.94250   0.25785866E+00
   0.94350   0.31081468E+00
   0.94450   0.38386565E+00
   0.94550   0.41812974E+00
   0.94650   0.41880170E+00
   0.94750   0.41398519E+00
   0.94850   0.42233738E+00
   0.94950   0.43878129E+00
   0.95050   0.45470792E+00
   0.95150   0.47670776E+00
   0.95250   0.51063687E+00
   0.95350   0.53991008E+00
   0.95450   0.51469493E+00
   0.95550   0.49139637E+00
   0.95650   0.48507759E+00
   0.95750   0.45502084E+00
   0.95850   0.43336993E+00
   0.95950   0.43730453E+00
   0.96050   0.43614224E+00
   0.96150   0.42295992E+00
   0.96250   0.41185927E+00
   0.96350   0.40960681E+00
   0.96450   0.41527253E+00
   0.96550   0.42527080E+00
   0.96650   0.43549016E+00
   0.96750   0.44349825E+00
   0.96850   0.44855469E+00
   0.96950   0.45060229E+00
   0.97050   0.45098078E+00
   0.97150   0.45154899E+00
   0.97250   0.45301440E+00
   0.97350   0.45559093E+00
   0.97450   0.46002665E+00
   0.97550   0.46742645E+00
   0.97650   0.47737515E+00
   0.97750   0.48576728E+00
   0.97850   0.48938963E+00
   0.97950   0.48864725E+00
   0.98050   0.48552391E+00
   0.98150   0.48157638E+00
   0.98250   0.47705618E+00
   0.98350   0.46814793E+00
   0.98450   0.44899383E+00
   0.98550   0.42366400E+00
   0.98650   0.39885795E+00
   0.98750   0.37924230E+00
   0.98850   0.37158951E+00
   0.98950   0.37657341E+00
   0.99050   0.38822109E+00
   0.99150   0.40129063E+00
   0.99250   0.41387773E+00
   0.99350   0.43031347E+00
   0.99450   0.45161095E+00
   0.99550   0.47468773E+00
   0.99650   0.49820721E+00
   0.99750   0.52464956E+00
   0.99850   0.55604529E+00
   0.99950   0.58238024E+00
