# Transmission, k-averaged
# Date: 2021-05-13
#   E [eV]           T [G0]
   0.00050   0.28156734E+00
   0.00150   0.46282057E-01
   0.00250   0.21310158E-01
   0.00350   0.46637203E-02
   0.00450   0.79643251E-02
   0.00550   0.35462193E-02
   0.00650   0.80478201E-02
   0.00750   0.18262560E-02
   0.00850   0.95036207E-02
   0.00950   0.37721039E-02
   0.01050   0.14456293E-02
   0.01150   0.32023315E-02
   0.01250   0.20504188E-01
   0.01350   0.19481997E-02
   0.01450   0.12035937E-02
   0.01550   0.22065809E-02
   0.01650   0.23765896E-01
   0.01750   0.37162330E-02
   0.01850   0.12131075E-02
   0.01950   0.10415842E-02
   0.02050   0.19283743E-02
   0.02150   0.14874554E-01
   0.02250   0.64289733E-02
   0.02350   0.14412813E-02
   0.02450   0.90382091E-03
   0.02550   0.10255511E-02
   0.02650   0.22284898E-02
   0.02750   0.19149370E-01
   0.02850   0.62866583E-02
   0.02950   0.15151278E-02
   0.03050   0.90870383E-03
   0.03150   0.90420974E-03
   0.03250   0.14439322E-02
   0.03350   0.46143797E-02
   0.03450   0.18648081E-01
   0.03550   0.33304940E-02
   0.03650   0.13659671E-02
   0.03750   0.99065877E-03
   0.03850   0.10625245E-02
   0.03950   0.16562935E-02
   0.04050   0.39435169E-02
   0.04150   0.79229800E-02
   0.04250   0.36122678E-02
   0.04350   0.17883473E-02
   0.04450   0.13613489E-02
   0.04550   0.14882943E-02
   0.04650   0.19323761E-02
   0.04750   0.25339429E-02
   0.04850   0.29865555E-02
   0.04950   0.29841950E-02
   0.05050   0.26741375E-02
   0.05150   0.23560775E-02
   0.05250   0.21525403E-02
   0.05350   0.20710456E-02
   0.05450   0.20893149E-02
   0.05550   0.21789735E-02
   0.05650   0.23046632E-02
   0.05750   0.24232531E-02
   0.05850   0.24950504E-02
   0.05950   0.25027818E-02
   0.06050   0.24588127E-02
   0.06150   0.23922420E-02
   0.06250   0.23307498E-02
   0.06350   0.22914896E-02
   0.06450   0.22808090E-02
   0.06550   0.22970322E-02
   0.06650   0.23330587E-02
   0.06750   0.23784612E-02
   0.06850   0.24218021E-02
   0.06950   0.24534676E-02
   0.07050   0.24682868E-02
   0.07150   0.24666551E-02
   0.07250   0.24535547E-02
   0.07350   0.24361699E-02
   0.07450   0.24214287E-02
   0.07550   0.24143762E-02
   0.07650   0.24175225E-02
   0.07750   0.24308721E-02
   0.07850   0.24523337E-02
   0.07950   0.24783507E-02
   0.08050   0.25047096E-02
   0.08150   0.25274639E-02
   0.08250   0.25438115E-02
   0.08350   0.25526895E-02
   0.08450   0.25548995E-02
   0.08550   0.25527403E-02
   0.08650   0.25493240E-02
   0.08750   0.25478210E-02
   0.08850   0.25508404E-02
   0.08950   0.25600353E-02
   0.09050   0.25759311E-02
   0.09150   0.25978195E-02
   0.09250   0.26222831E-02
   0.09350   0.26431917E-02
   0.09450   0.26589625E-02
   0.09550   0.26702974E-02
   0.09650   0.26784304E-02
   0.09750   0.26848572E-02
   0.09850   0.26910750E-02
   0.09950   0.26983500E-02
   0.10050   0.27075664E-02
   0.10150   0.27191620E-02
   0.10250   0.27331419E-02
   0.10350   0.27491520E-02
   0.10450   0.27665896E-02
   0.10550   0.27847339E-02
   0.10650   0.28028777E-02
   0.10750   0.28204389E-02
   0.10850   0.28370414E-02
   0.10950   0.28525519E-02
   0.11050   0.28670733E-02
   0.11150   0.28809009E-02
   0.11250   0.28944518E-02
   0.11350   0.29081851E-02
   0.11450   0.29225277E-02
   0.11550   0.29378128E-02
   0.11650   0.29542428E-02
   0.11750   0.29718739E-02
   0.11850   0.29906267E-02
   0.11950   0.30103114E-02
   0.12050   0.30306694E-02
   0.12150   0.30514204E-02
   0.12250   0.30723081E-02
   0.12350   0.30931407E-02
   0.12450   0.31138160E-02
   0.12550   0.31343368E-02
   0.12650   0.31548035E-02
   0.12750   0.31753997E-02
   0.12850   0.31963622E-02
   0.12950   0.32179495E-02
   0.13050   0.32404088E-02
   0.13150   0.32639483E-02
   0.13250   0.32887170E-02
   0.13350   0.33147950E-02
   0.13450   0.33421938E-02
   0.13550   0.33708666E-02
   0.13650   0.34007260E-02
   0.13750   0.34316676E-02
   0.13850   0.34635945E-02
   0.13950   0.34964411E-02
   0.14050   0.35301927E-02
   0.14150   0.35648975E-02
   0.14250   0.36006712E-02
   0.14350   0.36376922E-02
   0.14450   0.36761914E-02
   0.14550   0.37164339E-02
   0.14650   0.37587003E-02
   0.14750   0.38032657E-02
   0.14850   0.38503823E-02
   0.14950   0.39002653E-02
   0.15050   0.39530853E-02
   0.15150   0.40089679E-02
   0.15250   0.40679961E-02
   0.15350   0.41302242E-02
   0.15450   0.41956892E-02
   0.15550   0.42644297E-02
   0.15650   0.43365001E-02
   0.15750   0.44119824E-02
   0.15850   0.44909967E-02
   0.15950   0.45736982E-02
   0.16050   0.46602716E-02
   0.16150   0.47509130E-02
   0.16250   0.48458064E-02
   0.16350   0.49450952E-02
   0.16450   0.50488436E-02
   0.16550   0.51570074E-02
   0.16650   0.52693938E-02
   0.16750   0.53856368E-02
   0.16850   0.55051758E-02
   0.16950   0.56272442E-02
   0.17050   0.57508736E-02
   0.17150   0.58749118E-02
   0.17250   0.59980573E-02
   0.17350   0.61189006E-02
   0.17450   0.62359413E-02
   0.17550   0.63473159E-02
   0.17650   0.64507364E-02
   0.17750   0.65457146E-02
   0.17850   0.66317045E-02
   0.17950   0.67076860E-02
   0.18050   0.67726867E-02
   0.18150   0.68259272E-02
   0.18250   0.68668718E-02
   0.18350   0.68952567E-02
   0.18450   0.69110990E-02
   0.18550   0.69146864E-02
   0.18650   0.69065597E-02
   0.18750   0.68874769E-02
   0.18850   0.68583731E-02
   0.18950   0.68203146E-02
   0.19050   0.67744525E-02
   0.19150   0.67219762E-02
   0.19250   0.66640754E-02
   0.19350   0.66019031E-02
   0.19450   0.65365494E-02
   0.19550   0.64690192E-02
   0.19650   0.64002196E-02
   0.19750   0.63309497E-02
   0.19850   0.62618982E-02
   0.19950   0.61936453E-02
   0.20050   0.61266660E-02
   0.20150   0.60613370E-02
   0.20250   0.59979460E-02
   0.20350   0.59367032E-02
   0.20450   0.58777495E-02
   0.20550   0.58211694E-02
   0.20650   0.57670027E-02
   0.20750   0.57152542E-02
   0.20850   0.56659039E-02
   0.20950   0.56189192E-02
   0.21050   0.55742660E-02
   0.21150   0.55319197E-02
   0.21250   0.54918933E-02
   0.21350   0.54542851E-02
   0.21450   0.54194201E-02
   0.21550   0.53883479E-02
   0.21650   0.53650332E-02
   0.21750   0.53655682E-02
   0.21850   0.54040044E-02
   0.21950   0.54491297E-02
   0.22050   0.54882970E-02
   0.22150   0.55213692E-02
   0.22250   0.55492735E-02
   0.22350   0.55727479E-02
   0.22450   0.55923150E-02
   0.22550   0.56083468E-02
   0.22650   0.56211189E-02
   0.22750   0.56308433E-02
   0.22850   0.56376928E-02
   0.22950   0.56418153E-02
   0.23050   0.56433459E-02
   0.23150   0.56424215E-02
   0.23250   0.56392029E-02
   0.23350   0.56339446E-02
   0.23450   0.56271944E-02
   0.23550   0.56191883E-02
   0.23650   0.56089582E-02
   0.23750   0.55963048E-02
   0.23850   0.55813305E-02
   0.23950   0.55641183E-02
   0.24050   0.55447305E-02
   0.24150   0.55232225E-02
   0.24250   0.54996489E-02
   0.24350   0.54740678E-02
   0.24450   0.54465397E-02
   0.24550   0.54171314E-02
   0.24650   0.53859120E-02
   0.24750   0.53529553E-02
   0.24850   0.53183362E-02
   0.24950   0.52821310E-02
   0.25050   0.52444162E-02
   0.25150   0.52052680E-02
   0.25250   0.51647634E-02
   0.25350   0.51229782E-02
   0.25450   0.50799889E-02
   0.25550   0.50358735E-02
   0.25650   0.49907127E-02
   0.25750   0.49445899E-02
   0.25850   0.48975940E-02
   0.25950   0.48498199E-02
   0.26050   0.48013693E-02
   0.26150   0.47523528E-02
   0.26250   0.47028903E-02
   0.26350   0.46531111E-02
   0.26450   0.46031550E-02
   0.26550   0.45531713E-02
   0.26650   0.45033190E-02
   0.26750   0.44537671E-02
   0.26850   0.44046915E-02
   0.26950   0.43562758E-02
   0.27050   0.43087099E-02
   0.27150   0.42621871E-02
   0.27250   0.42169038E-02
   0.27350   0.41730581E-02
   0.27450   0.41308468E-02
   0.27550   0.40904665E-02
   0.27650   0.40521100E-02
   0.27750   0.40159672E-02
   0.27850   0.39822240E-02
   0.27950   0.39510601E-02
   0.28050   0.39226534E-02
   0.28150   0.38971757E-02
   0.28250   0.38747971E-02
   0.28350   0.38556864E-02
   0.28450   0.38400120E-02
   0.28550   0.38279451E-02
   0.28650   0.38196626E-02
   0.28750   0.38153497E-02
   0.28850   0.38152034E-02
   0.28950   0.38194377E-02
   0.29050   0.38282869E-02
   0.29150   0.38420123E-02
   0.29250   0.38609074E-02
   0.29350   0.38853043E-02
   0.29450   0.39155795E-02
   0.29550   0.39521549E-02
   0.29650   0.39954870E-02
   0.29750   0.40460015E-02
   0.29850   0.41038576E-02
   0.29950   0.41694376E-02
   0.30050   0.42454321E-02
   0.30150   0.43337811E-02
   0.30250   0.44360040E-02
   0.30350   0.45541176E-02
   0.30450   0.46907738E-02
   0.30550   0.48494213E-02
   0.30650   0.50345608E-02
   0.30750   0.52521289E-02
   0.30850   0.55100694E-02
   0.30950   0.58191973E-02
   0.31050   0.61945352E-02
   0.31150   0.66574230E-02
   0.31250   0.72389781E-02
   0.31350   0.79859281E-02
   0.31450   0.89708678E-02
   0.31550   0.10311056E-01
   0.31650   0.12204573E-01
   0.31750   0.15003687E-01
   0.31850   0.19372316E-01
   0.31950   0.26643001E-01
   0.32050   0.39656851E-01
   0.32150   0.64678282E-01
   0.32250   0.11450262E+00
   0.32350   0.20330438E+00
   0.32450   0.29141426E+00
   0.32550   0.26057020E+00
   0.32650   0.15432891E+00
   0.32750   0.81424668E-01
   0.32850   0.45871034E-01
   0.32950   0.28940435E-01
   0.33050   0.20322584E-01
   0.33150   0.15571667E-01
   0.33250   0.12761248E-01
   0.33350   0.11002258E-01
   0.33450   0.98533202E-02
   0.33550   0.90796761E-02
   0.33650   0.85485475E-02
   0.33750   0.81806807E-02
   0.33850   0.79264762E-02
   0.33950   0.77535408E-02
   0.34050   0.76398784E-02
   0.34150   0.75699775E-02
   0.34250   0.75324792E-02
   0.34350   0.75187311E-02
   0.34450   0.75218594E-02
   0.34550   0.75361575E-02
   0.34650   0.75566666E-02
   0.34750   0.75788898E-02
   0.34850   0.75985906E-02
   0.34950   0.76116691E-02
   0.35050   0.76141013E-02
   0.35150   0.76019601E-02
   0.35250   0.75715450E-02
   0.35350   0.75196903E-02
   0.35450   0.74443743E-02
   0.35550   0.73458669E-02
   0.35650   0.72289146E-02
   0.35750   0.71070176E-02
   0.35850   0.70112767E-02
   0.35950   0.70101772E-02
   0.36050   0.72588460E-02
   0.36150   0.81415083E-02
   0.36250   0.10734724E-01
   0.36350   0.18243020E-01
   0.36450   0.10160106E+00
   0.36550   0.61372142E-01
   0.36650   0.88286117E-01
   0.36750   0.13298926E+00
   0.36850   0.19274385E+00
   0.36950   0.28714484E+00
   0.37050   0.41686666E+00
   0.37150   0.36813474E+00
   0.37250   0.18493117E+00
   0.37350   0.92093542E-01
   0.37450   0.54374252E-01
   0.37550   0.37790645E-01
   0.37650   0.30005559E-01
   0.37750   0.26619740E-01
   0.37850   0.26255202E-01
   0.37950   0.30105622E-01
   0.38050   0.50357189E-01
   0.38150   0.29805085E-01
   0.38250   0.28178629E-01
   0.38350   0.37083492E-01
   0.38450   0.12886086E+00
   0.38550   0.45655742E-01
   0.38650   0.34334708E-01
   0.38750   0.51959421E-01
   0.38850   0.64232506E-01
   0.38950   0.70070028E-01
   0.39050   0.80644272E-01
   0.39150   0.92382811E-01
   0.39250   0.10394023E+00
   0.39350   0.11659759E+00
   0.39450   0.12793359E+00
   0.39550   0.13592163E+00
   0.39650   0.14202362E+00
   0.39750   0.14768262E+00
   0.39850   0.15211734E+00
   0.39950   0.15399738E+00
   0.40050   0.15305905E+00
   0.40150   0.15054141E+00
   0.40250   0.14809348E+00
   0.40350   0.14637063E+00
   0.40450   0.14495507E+00
   0.40550   0.14307459E+00
   0.40650   0.14017124E+00
   0.40750   0.13615817E+00
   0.40850   0.13142805E+00
   0.40950   0.12661622E+00
   0.41050   0.12227149E+00
   0.41150   0.11867841E+00
   0.41250   0.11586519E+00
   0.41350   0.11367052E+00
   0.41450   0.11177755E+00
   0.41550   0.10990909E+00
   0.41650   0.10812620E+00
   0.41750   0.10657568E+00
   0.41850   0.10539031E+00
   0.41950   0.10467000E+00
   0.42050   0.10446800E+00
   0.42150   0.10478611E+00
   0.42250   0.10558040E+00
   0.42350   0.10677557E+00
   0.42450   0.10828271E+00
   0.42550   0.11001325E+00
   0.42650   0.11188485E+00
   0.42750   0.11382062E+00
   0.42850   0.11574619E+00
   0.42950   0.11758868E+00
   0.43050   0.11927883E+00
   0.43150   0.12075540E+00
   0.43250   0.12197024E+00
   0.43350   0.12289183E+00
   0.43450   0.12350601E+00
   0.43550   0.12381279E+00
   0.43650   0.12381986E+00
   0.43750   0.12353496E+00
   0.43850   0.12295992E+00
   0.43950   0.12208878E+00
   0.44050   0.12091102E+00
   0.44150   0.11941952E+00
   0.44250   0.11762254E+00
   0.44350   0.11555934E+00
   0.44450   0.11332025E+00
   0.44550   0.11107317E+00
   0.44650   0.10909817E+00
   0.44750   0.10782947E+00
   0.44850   0.10789736E+00
   0.44950   0.11017434E+00
   0.45050   0.11601529E+00
   0.45150   0.12876511E+00
   0.45250   0.15827271E+00
   0.45350   0.21812010E+00
   0.45450   0.29148000E+00
   0.45550   0.33072197E+00
   0.45650   0.32378685E+00
   0.45750   0.29242992E+00
   0.45850   0.25573739E+00
   0.45950   0.22219102E+00
   0.46050   0.19430491E+00
   0.46150   0.17234923E+00
   0.46250   0.15594672E+00
   0.46350   0.14456129E+00
   0.46450   0.13749884E+00
   0.46550   0.13365690E+00
   0.46650   0.13118190E+00
   0.46750   0.12755655E+00
   0.46850   0.12170591E+00
   0.46950   0.12014932E+00
   0.47050   0.14190075E+00
   0.47150   0.20196953E+00
   0.47250   0.28021833E+00
   0.47350   0.33550984E+00
   0.47450   0.35010022E+00
   0.47550   0.33384436E+00
   0.47650   0.30303684E+00
   0.47750   0.26893073E+00
   0.47850   0.23702613E+00
   0.47950   0.20929988E+00
   0.48050   0.18603566E+00
   0.48150   0.16683757E+00
   0.48250   0.15110654E+00
   0.48350   0.13824013E+00
   0.48450   0.12770498E+00
   0.48550   0.11905470E+00
   0.48650   0.11192674E+00
   0.48750   0.10603242E+00
   0.48850   0.10114609E+00
   0.48950   0.97095490E-01
   0.49050   0.93754336E-01
   0.49150   0.91037288E-01
   0.49250   0.88898554E-01
   0.49350   0.87336645E-01
   0.49450   0.86412624E-01
   0.49550   0.86305112E-01
   0.49650   0.87489374E-01
   0.49750   0.91416150E-01
   0.49850   0.10176400E+00
   0.49950   0.11681506E+00
   0.50050   0.13084872E+00
   0.50150   0.14341938E+00
   0.50250   0.15493107E+00
   0.50350   0.16565922E+00
   0.50450   0.17576823E+00
   0.50550   0.18535864E+00
   0.50650   0.19449477E+00
   0.50750   0.20321955E+00
   0.50850   0.21156278E+00
   0.50950   0.21954563E+00
   0.51050   0.22718282E+00
   0.51150   0.23448347E+00
   0.51250   0.24145080E+00
   0.51350   0.24808085E+00
   0.51450   0.25435987E+00
   0.51550   0.26026025E+00
   0.51650   0.26573339E+00
   0.51750   0.27069870E+00
   0.51850   0.27502578E+00
   0.51950   0.27852446E+00
   0.52050   0.28132290E+00
   0.52150   0.28703129E+00
   0.52250   0.31773633E+00
   0.52350   0.43057698E+00
   0.52450   0.38700455E+00
   0.52550   0.35972664E+00
   0.52650   0.35142756E+00
   0.52750   0.34968391E+00
   0.52850   0.35064682E+00
   0.52950   0.35275823E+00
   0.53050   0.35335043E+00
   0.53150   0.36404189E+00
   0.53250   0.39137152E+00
   0.53350   0.51530153E+00
   0.53450   0.44260100E+00
   0.53550   0.41642854E+00
   0.53650   0.31389406E+00
   0.53750   0.36798167E+00
   0.53850   0.39383376E+00
   0.53950   0.44676748E+00
   0.54050   0.46609962E+00
   0.54150   0.47184682E+00
   0.54250   0.46849868E+00
   0.54350   0.46088868E+00
   0.54450   0.45709097E+00
   0.54550   0.45875201E+00
   0.54650   0.46265629E+00
   0.54750   0.46405014E+00
   0.54850   0.46218249E+00
   0.54950   0.46012935E+00
   0.55050   0.45898089E+00
   0.55150   0.45809948E+00
   0.55250   0.45749950E+00
   0.55350   0.45798093E+00
   0.55450   0.45987925E+00
   0.55550   0.46287632E+00
   0.55650   0.46656686E+00
   0.55750   0.47072533E+00
   0.55850   0.47518235E+00
   0.55950   0.47968504E+00
   0.56050   0.48396215E+00
   0.56150   0.48782361E+00
   0.56250   0.49112016E+00
   0.56350   0.49363062E+00
   0.56450   0.49502084E+00
   0.56550   0.49494833E+00
   0.56650   0.49324450E+00
   0.56750   0.49000531E+00
   0.56850   0.48550856E+00
   0.56950   0.48005372E+00
   0.57050   0.47385949E+00
   0.57150   0.46706337E+00
   0.57250   0.45978639E+00
   0.57350   0.45220214E+00
   0.57450   0.44456044E+00
   0.57550   0.43715343E+00
   0.57650   0.43025148E+00
   0.57750   0.42405182E+00
   0.57850   0.41866454E+00
   0.57950   0.41413164E+00
   0.58050   0.41045886E+00
   0.58150   0.40764305E+00
   0.58250   0.40568423E+00
   0.58350   0.40458235E+00
   0.58450   0.40432528E+00
   0.58550   0.40487847E+00
   0.58650   0.40618327E+00
   0.58750   0.40816388E+00
   0.58850   0.41073704E+00
   0.58950   0.41381857E+00
   0.59050   0.41732410E+00
   0.59150   0.42116606E+00
   0.59250   0.42525050E+00
   0.59350   0.42947686E+00
   0.59450   0.43374202E+00
   0.59550   0.43794808E+00
   0.59650   0.44201100E+00
   0.59750   0.44586867E+00
   0.59850   0.44948569E+00
   0.59950   0.45285362E+00
   0.60050   0.45598659E+00
   0.60150   0.45891273E+00
   0.60250   0.46166390E+00
   0.60350   0.46426541E+00
   0.60450   0.46672860E+00
   0.60550   0.46904773E+00
   0.60650   0.47120211E+00
   0.60750   0.47316211E+00
   0.60850   0.47489804E+00
   0.60950   0.47638902E+00
   0.61050   0.47763085E+00
   0.61150   0.47864094E+00
   0.61250   0.47946069E+00
   0.61350   0.48015502E+00
   0.61450   0.48081028E+00
   0.61550   0.48153198E+00
   0.61650   0.48244536E+00
   0.61750   0.48369351E+00
   0.61850   0.48530099E+00
   0.61950   0.48711830E+00
   0.62050   0.48952505E+00
   0.62150   0.49383342E+00
   0.62250   0.50340152E+00
   0.62350   0.51733059E+00
   0.62450   0.53018898E+00
   0.62550   0.54157561E+00
   0.62650   0.55197829E+00
   0.62750   0.56171280E+00
   0.62850   0.57094949E+00
   0.62950   0.57976264E+00
   0.63050   0.58815116E+00
   0.63150   0.59603542E+00
   0.63250   0.60322106E+00
   0.63350   0.60929811E+00
   0.63450   0.61337525E+00
   0.63550   0.61339855E+00
   0.63650   0.60000354E+00
   0.63750   0.50969493E+00
   0.63850   0.53168601E+00
   0.63950   0.68555415E+00
   0.64050   0.70361352E+00
   0.64150   0.71267229E+00
   0.64250   0.72084856E+00
   0.64350   0.72822648E+00
   0.64450   0.73125750E+00
   0.64550   0.71258491E+00
   0.64650   0.68950993E+00
   0.64750   0.64374834E+00
   0.64850   0.52130187E+00
   0.64950   0.61494130E+00
   0.65050   0.64071906E+00
   0.65150   0.59988326E+00
   0.65250   0.60406607E+00
   0.65350   0.66539896E+00
   0.65450   0.70661891E+00
   0.65550   0.72791785E+00
   0.65650   0.73484480E+00
   0.65750   0.73330849E+00
   0.65850   0.73093259E+00
   0.65950   0.73297757E+00
   0.66050   0.73829514E+00
   0.66150   0.74471515E+00
   0.66250   0.75240666E+00
   0.66350   0.76196110E+00
   0.66450   0.77286464E+00
   0.66550   0.78456181E+00
   0.66650   0.79664832E+00
   0.66750   0.80899239E+00
   0.66850   0.82192123E+00
   0.66950   0.83582878E+00
   0.67050   0.85068476E+00
   0.67150   0.86604059E+00
   0.67250   0.88136756E+00
   0.67350   0.89642835E+00
   0.67450   0.91135293E+00
   0.67550   0.92634159E+00
   0.67650   0.94138283E+00
   0.67750   0.95629799E+00
   0.67850   0.97094029E+00
   0.67950   0.98532522E+00
   0.68050   0.99965739E+00
   0.68150   0.10142410E+01
   0.68250   0.10292739E+01
   0.68350   0.10446473E+01
   0.68450   0.10599135E+01
   0.68550   0.10744286E+01
   0.68650   0.10874969E+01
   0.68750   0.10985767E+01
   0.68850   0.11083733E+01
   0.68950   0.11178235E+01
   0.69050   0.11272546E+01
   0.69150   0.11367891E+01
   0.69250   0.11464150E+01
   0.69350   0.11560165E+01
   0.69450   0.11654152E+01
   0.69550   0.11744152E+01
   0.69650   0.11828409E+01
   0.69750   0.11905617E+01
   0.69850   0.11975039E+01
   0.69950   0.12036506E+01
   0.70050   0.12090342E+01
   0.70150   0.12137258E+01
   0.70250   0.12178222E+01
   0.70350   0.12214341E+01
   0.70450   0.12246760E+01
   0.70550   0.12276783E+01
   0.70650   0.12305509E+01
   0.70750   0.12332952E+01
   0.70850   0.12359191E+01
   0.70950   0.12384436E+01
   0.71050   0.12408892E+01
   0.71150   0.12432710E+01
   0.71250   0.12455984E+01
   0.71350   0.12478758E+01
   0.71450   0.12501057E+01
   0.71550   0.12522914E+01
   0.71650   0.12544374E+01
   0.71750   0.12565483E+01
   0.71850   0.12586222E+01
   0.71950   0.12606418E+01
   0.72050   0.12625550E+01
   0.72150   0.12642368E+01
   0.72250   0.12653897E+01
   0.72350   0.12652276E+01
   0.72450   0.12611707E+01
   0.72550   0.12411979E+01
   0.72650   0.11463767E+01
   0.72750   0.12205800E+01
   0.72850   0.12724159E+01
   0.72950   0.12869564E+01
   0.73050   0.12951556E+01
   0.73150   0.13027164E+01
   0.73250   0.13121374E+01
   0.73350   0.13159372E+01
   0.73450   0.12902355E+01
   0.73550   0.12083902E+01
   0.73650   0.12176119E+01
   0.73750   0.12986015E+01
   0.73850   0.13468834E+01
   0.73950   0.13747823E+01
   0.74050   0.13916976E+01
   0.74150   0.13988390E+01
   0.74250   0.13929139E+01
   0.74350   0.13683187E+01
   0.74450   0.13286335E+01
   0.74550   0.13843865E+01
   0.74650   0.13747319E+01
   0.74750   0.13867217E+01
   0.74850   0.14150603E+01
   0.74950   0.14229769E+01
   0.75050   0.14256463E+01
   0.75150   0.14431707E+01
   0.75250   0.14695936E+01
   0.75350   0.14888864E+01
   0.75450   0.15104848E+01
   0.75550   0.15430293E+01
   0.75650   0.15715066E+01
   0.75750   0.15916882E+01
   0.75850   0.16054975E+01
   0.75950   0.16129706E+01
   0.76050   0.16153748E+01
   0.76150   0.16151649E+01
   0.76250   0.16150770E+01
   0.76350   0.16171414E+01
   0.76450   0.16212119E+01
   0.76550   0.16261637E+01
   0.76650   0.16313059E+01
   0.76750   0.16361259E+01
   0.76850   0.16401094E+01
   0.76950   0.16428659E+01
   0.77050   0.16442301E+01
   0.77150   0.16444129E+01
   0.77250   0.16442180E+01
   0.77350   0.16448578E+01
   0.77450   0.16472398E+01
   0.77550   0.16516099E+01
   0.77650   0.16577860E+01
   0.77750   0.16653240E+01
   0.77850   0.16735772E+01
   0.77950   0.16819253E+01
   0.78050   0.16900105E+01
   0.78150   0.16977253E+01
   0.78250   0.17048510E+01
   0.78350   0.17109834E+01
   0.78450   0.17162136E+01
   0.78550   0.17208986E+01
   0.78650   0.17255813E+01
   0.78750   0.17308570E+01
   0.78850   0.17371188E+01
   0.78950   0.17443990E+01
   0.79050   0.17524387E+01
   0.79150   0.17608794E+01
   0.79250   0.17694067E+01
   0.79350   0.17777914E+01
   0.79450   0.17858641E+01
   0.79550   0.17934709E+01
   0.79650   0.18004239E+01
   0.79750   0.18064064E+01
   0.79850   0.18106309E+01
   0.79950   0.18102006E+01
   0.80050   0.17904710E+01
   0.80150   0.17283436E+01
   0.80250   0.17773572E+01
   0.80350   0.18117701E+01
   0.80450   0.18274990E+01
   0.80550   0.18378360E+01
   0.80650   0.18463886E+01
   0.80750   0.18542998E+01
   0.80850   0.18619689E+01
   0.80950   0.18695185E+01
   0.81050   0.18769561E+01
   0.81150   0.18842430E+01
   0.81250   0.18913325E+01
   0.81350   0.18981971E+01
   0.81450   0.19048566E+01
   0.81550   0.19114139E+01
   0.81650   0.19180760E+01
   0.81750   0.19249390E+01
   0.81850   0.19306098E+01
   0.81950   0.19312974E+01
   0.82050   0.19284428E+01
   0.82150   0.19262661E+01
   0.82250   0.19247769E+01
   0.82350   0.19230800E+01
   0.82450   0.19213037E+01
   0.82550   0.19222863E+01
   0.82650   0.19299432E+01
   0.82750   0.19378271E+01
   0.82850   0.19402760E+01
   0.82950   0.19468167E+01
   0.83050   0.19538332E+01
   0.83150   0.19573039E+01
   0.83250   0.19573270E+01
   0.83350   0.19547178E+01
   0.83450   0.19508579E+01
   0.83550   0.19486779E+01
   0.83650   0.19531595E+01
   0.83750   0.19662200E+01
   0.83850   0.19782726E+01
   0.83950   0.19759742E+01
   0.84050   0.19589871E+01
   0.84150   0.19603269E+01
   0.84250   0.19699329E+01
   0.84350   0.19735438E+01
   0.84450   0.19786571E+01
   0.84550   0.19888825E+01
   0.84650   0.19991440E+01
   0.84750   0.20056150E+01
   0.84850   0.20086589E+01
   0.84950   0.20090435E+01
   0.85050   0.20072026E+01
   0.85150   0.20034933E+01
   0.85250   0.19987384E+01
   0.85350   0.19946032E+01
   0.85450   0.19928678E+01
   0.85550   0.19940077E+01
   0.85650   0.19970968E+01
   0.85750   0.20008938E+01
   0.85850   0.20044086E+01
   0.85950   0.20066557E+01
   0.86050   0.20061076E+01
   0.86150   0.20021923E+01
   0.86250   0.20036952E+01
   0.86350   0.20125775E+01
   0.86450   0.20192266E+01
   0.86550   0.20226786E+01
   0.86650   0.20239160E+01
   0.86750   0.20233989E+01
   0.86850   0.20213037E+01
   0.86950   0.20179348E+01
   0.87050   0.20140388E+01
   0.87150   0.20107150E+01
   0.87250   0.20088699E+01
   0.87350   0.20087466E+01
   0.87450   0.20099695E+01
   0.87550   0.20119476E+01
   0.87650   0.20143843E+01
   0.87750   0.20185294E+01
   0.87850   0.20123641E+01
   0.87950   0.20031621E+01
   0.88050   0.19999471E+01
   0.88150   0.19940703E+01
   0.88250   0.19863322E+01
   0.88350   0.19772464E+01
   0.88450   0.19669782E+01
   0.88550   0.19553483E+01
   0.88650   0.19418316E+01
   0.88750   0.19255024E+01
   0.88850   0.19053413E+01
   0.88950   0.18829058E+01
   0.89050   0.18720028E+01
   0.89150   0.18991760E+01
   0.89250   0.19487858E+01
   0.89350   0.19820676E+01
   0.89450   0.19974355E+01
   0.89550   0.20040793E+01
   0.89650   0.20071163E+01
   0.89750   0.20082204E+01
   0.89850   0.20070431E+01
   0.89950   0.20028393E+01
   0.90050   0.19983920E+01
   0.90150   0.19999213E+01
   0.90250   0.20056872E+01
   0.90350   0.20113435E+01
   0.90450   0.20141883E+01
   0.90550   0.20113821E+01
   0.90650   0.20005147E+01
   0.90750   0.19806168E+01
   0.90850   0.19579253E+01
   0.90950   0.19505272E+01
   0.91050   0.19646009E+01
   0.91150   0.19843409E+01
   0.91250   0.19981350E+01
   0.91350   0.20031164E+01
   0.91450   0.19984413E+01
   0.91550   0.19874083E+01
   0.91650   0.19803007E+01
   0.91750   0.19779733E+01
   0.91850   0.19780650E+01
   0.91950   0.19813638E+01
   0.92050   0.19871622E+01
   0.92150   0.19932474E+01
   0.92250   0.19980898E+01
   0.92350   0.20011678E+01
   0.92450   0.20024178E+01
   0.92550   0.20018406E+01
   0.92650   0.19993076E+01
   0.92750   0.19944645E+01
   0.92850   0.19866799E+01
   0.92950   0.19754879E+01
   0.93050   0.19682112E+01
   0.93150   0.19905975E+01
   0.93250   0.19958465E+01
   0.93350   0.19883410E+01
   0.93450   0.19807682E+01
   0.93550   0.19740168E+01
   0.93650   0.19675084E+01
   0.93750   0.19607368E+01
   0.93850   0.19534128E+01
   0.93950   0.19453983E+01
   0.94050   0.19366139E+01
   0.94150   0.19269607E+01
   0.94250   0.19162395E+01
   0.94350   0.19040920E+01
   0.94450   0.18903284E+01
   0.94550   0.18756711E+01
   0.94650   0.18607240E+01
   0.94750   0.18453672E+01
   0.94850   0.18296292E+01
   0.94950   0.18136990E+01
   0.95050   0.17978405E+01
   0.95150   0.17823290E+01
   0.95250   0.17673924E+01
   0.95350   0.17531703E+01
   0.95450   0.17397887E+01
   0.95550   0.17277428E+01
   0.95650   0.17166646E+01
   0.95750   0.17044080E+01
   0.95850   0.16902833E+01
   0.95950   0.16741173E+01
   0.96050   0.16558031E+01
   0.96150   0.16352736E+01
   0.96250   0.16124946E+01
   0.96350   0.15874454E+01
   0.96450   0.15600766E+01
   0.96550   0.15302430E+01
   0.96650   0.14976352E+01
   0.96750   0.14617660E+01
   0.96850   0.14220653E+01
   0.96950   0.13780743E+01
   0.97050   0.13296720E+01
   0.97150   0.12772881E+01
   0.97250   0.12221075E+01
   0.97350   0.11661172E+01
   0.97450   0.11117113E+01
   0.97550   0.10612234E+01
   0.97650   0.10172104E+01
   0.97750   0.98279750E+00
   0.97850   0.95947891E+00
   0.97950   0.94288874E+00
   0.98050   0.92798120E+00
   0.98150   0.91309428E+00
   0.98250   0.89765662E+00
   0.98350   0.88106346E+00
   0.98450   0.86223090E+00
   0.98550   0.84109217E+00
   0.98650   0.81948334E+00
   0.98750   0.79846317E+00
   0.98850   0.77783000E+00
   0.98950   0.75819576E+00
   0.99050   0.73940402E+00
   0.99150   0.72120535E+00
   0.99250   0.70310360E+00
   0.99350   0.68406099E+00
   0.99450   0.66290987E+00
   0.99550   0.63908023E+00
   0.99650   0.61252749E+00
   0.99750   0.58473158E+00
   0.99850   0.55827707E+00
   0.99950   0.53451306E+00
