# Transmission, k-averaged
# Date: 2021-05-13
#   E [eV]           T [G0]
   0.00050   0.52014743E-02
   0.00150   0.22365320E-01
   0.00250   0.14040041E-01
   0.00350   0.94549228E-02
   0.00450   0.88188471E-02
   0.00550   0.86671188E-02
   0.00650   0.78536421E-02
   0.00750   0.10861707E-01
   0.00850   0.10979622E-01
   0.00950   0.11668012E-01
   0.01050   0.21773476E-01
   0.01150   0.13834971E-01
   0.01250   0.16313834E-01
   0.01350   0.42088572E-01
   0.01450   0.18142570E-01
   0.01550   0.12552652E-01
   0.01650   0.33237893E-01
   0.01750   0.39017931E-01
   0.01850   0.85847750E-02
   0.01950   0.83345687E-02
   0.02050   0.43520804E-01
   0.02150   0.27101550E-01
   0.02250   0.10096420E-01
   0.02350   0.12657372E-01
   0.02450   0.32739252E-01
   0.02550   0.31288531E-01
   0.02650   0.13724488E-01
   0.02750   0.94651701E-02
   0.02850   0.80588209E-02
   0.02950   0.55583282E-02
   0.03050   0.26772160E-02
   0.03150   0.98227360E-03
   0.03250   0.22366758E-03
   0.03350   0.17272795E-03
   0.03450   0.70332928E-03
   0.03550   0.17356336E-02
   0.03650   0.31769078E-02
   0.03750   0.44997302E-02
   0.03850   0.53945901E-02
   0.03950   0.65275314E-02
   0.04050   0.89440811E-02
   0.04150   0.13362958E-01
   0.04250   0.15956752E-01
   0.04350   0.12512217E-01
   0.04450   0.92418110E-02
   0.04550   0.81789009E-02
   0.04650   0.87645417E-02
   0.04750   0.10356357E-01
   0.04850   0.11202182E-01
   0.04950   0.95304111E-02
   0.05050   0.70440620E-02
   0.05150   0.53834501E-02
   0.05250   0.46001212E-02
   0.05350   0.44505061E-02
   0.05450   0.47780587E-02
   0.05550   0.53819516E-02
   0.05650   0.57459506E-02
   0.05750   0.53073764E-02
   0.05850   0.43391297E-02
   0.05950   0.34733023E-02
   0.06050   0.29340067E-02
   0.06150   0.26925551E-02
   0.06250   0.26844891E-02
   0.06350   0.28469753E-02
   0.06450   0.30708686E-02
   0.06550   0.31596781E-02
   0.06650   0.29583301E-02
   0.06750   0.25538357E-02
   0.06850   0.21515146E-02
   0.06950   0.18625206E-02
   0.07050   0.17024827E-02
   0.07150   0.16543671E-02
   0.07250   0.16945970E-02
   0.07350   0.17881072E-02
   0.07450   0.18733591E-02
   0.07550   0.18729729E-02
   0.07650   0.17547162E-02
   0.07750   0.15673984E-02
   0.07850   0.13857184E-02
   0.07950   0.12538143E-02
   0.08050   0.11840931E-02
   0.08150   0.11745783E-02
   0.08250   0.12175041E-02
   0.08350   0.12965567E-02
   0.08450   0.13781587E-02
   0.08550   0.14130392E-02
   0.08650   0.13679590E-02
   0.08750   0.12602432E-02
   0.08850   0.11403018E-02
   0.08950   0.10500845E-02
   0.09050   0.10102191E-02
   0.09150   0.10236872E-02
   0.09250   0.10544884E-02
   0.09350   0.10598960E-02
   0.09450   0.10300715E-02
   0.09550   0.96018641E-03
   0.09650   0.87444810E-03
   0.09750   0.80817699E-03
   0.09850   0.78387442E-03
   0.09950   0.80890104E-03
   0.10050   0.87920536E-03
   0.10150   0.97579160E-03
   0.10250   0.10598560E-02
   0.10350   0.10871252E-02
   0.10450   0.10409576E-02
   0.10550   0.94089779E-03
   0.10650   0.81667618E-03
   0.10750   0.68796059E-03
   0.10850   0.56391797E-03
   0.10950   0.44926893E-03
   0.11050   0.34771001E-03
   0.11150   0.26202580E-03
   0.11250   0.19321694E-03
   0.11350   0.14034887E-03
   0.11450   0.10121863E-03
   0.11550   0.73194089E-04
   0.11650   0.53784945E-04
   0.11750   0.40888932E-04
   0.11850   0.32830525E-04
   0.11950   0.28310915E-04
   0.12050   0.26337630E-04
   0.12150   0.26160456E-04
   0.12250   0.27218892E-04
   0.12350   0.29099348E-04
   0.12450   0.31499916E-04
   0.12550   0.34201719E-04
   0.12650   0.37046535E-04
   0.12750   0.39920313E-04
   0.12850   0.42741714E-04
   0.12950   0.45454526E-04
   0.13050   0.48022528E-04
   0.13150   0.50425569E-04
   0.13250   0.52656138E-04
   0.13350   0.54715889E-04
   0.13450   0.56612269E-04
   0.13550   0.58355414E-04
   0.13650   0.59955626E-04
   0.13750   0.61421728E-04
   0.13850   0.62760300E-04
   0.13950   0.63975807E-04
   0.14050   0.65071414E-04
   0.14150   0.66050117E-04
   0.14250   0.66915971E-04
   0.14350   0.67675013E-04
   0.14450   0.68335714E-04
   0.14550   0.68908899E-04
   0.14650   0.69407120E-04
   0.14750   0.69843649E-04
   0.14850   0.70231348E-04
   0.14950   0.70581547E-04
   0.15050   0.70903261E-04
   0.15150   0.71202674E-04
   0.15250   0.71483162E-04
   0.15350   0.71745679E-04
   0.15450   0.71989452E-04
   0.15550   0.72212948E-04
   0.15650   0.72414805E-04
   0.15750   0.72594717E-04
   0.15850   0.72753995E-04
   0.15950   0.72895840E-04
   0.16050   0.73025149E-04
   0.16150   0.73148054E-04
   0.16250   0.73271105E-04
   0.16350   0.73400333E-04
   0.16450   0.73540294E-04
   0.16550   0.73693118E-04
   0.16650   0.73857671E-04
   0.16750   0.74028700E-04
   0.16850   0.74195836E-04
   0.16950   0.74341624E-04
   0.17050   0.74437456E-04
   0.17150   0.74433403E-04
   0.17250   0.74231284E-04
   0.17350   0.73602416E-04
   0.17450   0.71891023E-04
   0.17550   0.67208246E-04
   0.17650   0.59562124E-04
   0.17750   0.53181182E-04
   0.17850   0.48439142E-04
   0.17950   0.44777291E-04
   0.18050   0.41840307E-04
   0.18150   0.39418472E-04
   0.18250   0.37380694E-04
   0.18350   0.35640074E-04
   0.18450   0.34136228E-04
   0.18550   0.32825650E-04
   0.18650   0.31676136E-04
   0.18750   0.30663385E-04
   0.18850   0.29768838E-04
   0.18950   0.28978231E-04
   0.19050   0.28280620E-04
   0.19150   0.27667684E-04
   0.19250   0.27133237E-04
   0.19350   0.26672902E-04
   0.19450   0.26283875E-04
   0.19550   0.25964819E-04
   0.19650   0.25715857E-04
   0.19750   0.25538675E-04
   0.19850   0.25436762E-04
   0.19950   0.25415837E-04
   0.20050   0.25484502E-04
   0.20150   0.25655259E-04
   0.20250   0.25946043E-04
   0.20350   0.26382533E-04
   0.20450   0.27001741E-04
   0.20550   0.27857608E-04
   0.20650   0.29029859E-04
   0.20750   0.30638083E-04
   0.20850   0.32863554E-04
   0.20950   0.35979567E-04
   0.21050   0.40375333E-04
   0.21150   0.46473357E-04
   0.21250   0.54031312E-04
   0.21350   0.58724028E-04
   0.21450   0.43283937E-04
   0.21550   0.41763114E-05
   0.21650   0.21420694E-04
   0.21750   0.52737745E-04
   0.21850   0.56649478E-04
   0.21950   0.54397176E-04
   0.22050   0.51766798E-04
   0.22150   0.49385897E-04
   0.22250   0.47320365E-04
   0.22350   0.45556015E-04
   0.22450   0.44067314E-04
   0.22550   0.42831289E-04
   0.22650   0.41830906E-04
   0.22750   0.41056119E-04
   0.22850   0.40504685E-04
   0.22950   0.40183528E-04
   0.23050   0.40111012E-04
   0.23150   0.40319723E-04
   0.23250   0.40853356E-04
   0.23350   0.41699492E-04
   0.23450   0.42203741E-04
   0.23550   0.40488889E-04
   0.23650   0.37611382E-04
   0.23750   0.34830478E-04
   0.23850   0.32338765E-04
   0.23950   0.30124334E-04
   0.24050   0.28149730E-04
   0.24150   0.26379663E-04
   0.24250   0.24784742E-04
   0.24350   0.23341006E-04
   0.24450   0.22028842E-04
   0.24550   0.20832023E-04
   0.24650   0.19736965E-04
   0.24750   0.18732144E-04
   0.24850   0.17807690E-04
   0.24950   0.16955064E-04
   0.25050   0.16166818E-04
   0.25150   0.15436417E-04
   0.25250   0.14758102E-04
   0.25350   0.14126778E-04
   0.25450   0.13537937E-04
   0.25550   0.12987579E-04
   0.25650   0.12472165E-04
   0.25750   0.11988564E-04
   0.25850   0.11534011E-04
   0.25950   0.11106071E-04
   0.26050   0.10702605E-04
   0.26150   0.10321733E-04
   0.26250   0.99618119E-05
   0.26350   0.96213971E-05
   0.26450   0.92992213E-05
   0.26550   0.89941705E-05
   0.26650   0.87052540E-05
   0.26750   0.84315861E-05
   0.26850   0.81723665E-05
   0.26950   0.79268602E-05
   0.27050   0.76943834E-05
   0.27150   0.74742898E-05
   0.27250   0.72659573E-05
   0.27350   0.70687820E-05
   0.27450   0.68821701E-05
   0.27550   0.67055335E-05
   0.27650   0.65382874E-05
   0.27750   0.63798507E-05
   0.27850   0.62296454E-05
   0.27950   0.60871021E-05
   0.28050   0.59516610E-05
   0.28150   0.58227797E-05
   0.28250   0.56999352E-05
   0.28350   0.55826335E-05
   0.28450   0.54704110E-05
   0.28550   0.53628423E-05
   0.28650   0.52595401E-05
   0.28750   0.51601564E-05
   0.28850   0.50643785E-05
   0.28950   0.49719174E-05
   0.29050   0.48824822E-05
   0.29150   0.47957337E-05
   0.29250   0.47111907E-05
   0.29350   0.46280347E-05
   0.29450   0.45446727E-05
   0.29550   0.44576400E-05
   0.29650   0.43583827E-05
   0.29750   0.42218339E-05
   0.29850   0.39634933E-05
   0.29950   0.34756963E-05
   0.30050   0.29926025E-05
   0.30150   0.26245496E-05
   0.30250   0.23401060E-05
   0.30350   0.21123656E-05
   0.30450   0.19249580E-05
   0.30550   0.17675901E-05
   0.30650   0.16334124E-05
   0.30750   0.15176350E-05
   0.30850   0.14167731E-05
   0.30950   0.13282087E-05
   0.31050   0.12499257E-05
   0.31150   0.11803407E-05
   0.31250   0.11181914E-05
   0.31350   0.10624607E-05
   0.31450   0.10123224E-05
   0.31550   0.96710289E-06
   0.31650   0.92625243E-06
   0.31750   0.88932291E-06
   0.31850   0.85595116E-06
   0.31950   0.82584529E-06
   0.32050   0.79877395E-06
   0.32150   0.77455758E-06
   0.32250   0.75306133E-06
   0.32350   0.73418977E-06
   0.32450   0.71788264E-06
   0.32550   0.70411210E-06
   0.32650   0.69288171E-06
   0.32750   0.68422656E-06
   0.32850   0.67821549E-06
   0.32950   0.67495461E-06
   0.33050   0.67459325E-06
   0.33150   0.67733225E-06
   0.33250   0.68343388E-06
   0.33350   0.69323482E-06
   0.33450   0.70716084E-06
   0.33550   0.72574318E-06
   0.33650   0.74963498E-06
   0.33750   0.77962437E-06
   0.33850   0.81663865E-06
   0.33950   0.86172895E-06
   0.34050   0.91601549E-06
   0.34150   0.98056319E-06
   0.34250   0.10561363E-05
   0.34350   0.11427624E-05
   0.34450   0.12390273E-05
   0.34550   0.13410634E-05
   0.34650   0.14413788E-05
   0.34750   0.15281103E-05
   0.34850   0.15859879E-05
   0.34950   0.16007019E-05
   0.35050   0.15669452E-05
   0.35150   0.14959832E-05
   0.35250   0.14146303E-05
   0.35350   0.13522688E-05
   0.35450   0.13253455E-05
   0.35550   0.13326844E-05
   0.35650   0.13628469E-05
   0.35750   0.14040385E-05
   0.35850   0.14494033E-05
   0.35950   0.14975641E-05
   0.36050   0.15511562E-05
   0.36150   0.16142933E-05
   0.36250   0.16757750E-05
   0.36350   0.16733067E-05
   0.36450   0.16264615E-05
   0.36550   0.15801567E-05
   0.36650   0.15432415E-05
   0.36750   0.15156700E-05
   0.36850   0.14961004E-05
   0.36950   0.14832974E-05
   0.37050   0.14763691E-05
   0.37150   0.14747809E-05
   0.37250   0.14783384E-05
   0.37350   0.14871887E-05
   0.37450   0.15018505E-05
   0.37550   0.15232872E-05
   0.37650   0.15530428E-05
   0.37750   0.15934769E-05
   0.37850   0.16481551E-05
   0.37950   0.17223597E-05
   0.38050   0.18224232E-05
   0.38150   0.19387933E-05
   0.38250   0.19629849E-05
   0.38350   0.18579555E-05
   0.38450   0.17299000E-05
   0.38550   0.16108937E-05
   0.38650   0.15053689E-05
   0.38750   0.14126783E-05
   0.38850   0.13312374E-05
   0.38950   0.12593874E-05
   0.39050   0.11955912E-05
   0.39150   0.11384728E-05
   0.39250   0.10868213E-05
   0.39350   0.10395846E-05
   0.39450   0.99586509E-06
   0.39550   0.95491498E-06
   0.39650   0.91613049E-06
   0.39750   0.87904533E-06
   0.39850   0.84332180E-06
   0.39950   0.80873929E-06
   0.40050   0.77518018E-06
   0.40150   0.74261339E-06
   0.40250   0.71107610E-06
   0.40350   0.68065413E-06
   0.40450   0.65146105E-06
   0.40550   0.62361738E-06
   0.40650   0.59722890E-06
   0.40750   0.57236326E-06
   0.40850   0.54902193E-06
   0.40950   0.52709834E-06
   0.41050   0.50629620E-06
   0.41150   0.48592960E-06
   0.41250   0.46430651E-06
   0.41350   0.43656365E-06
   0.41450   0.39365597E-06
   0.41550   0.34931190E-06
   0.41650   0.31717693E-06
   0.41750   0.29406121E-06
   0.41850   0.27685036E-06
   0.41950   0.26374587E-06
   0.42050   0.25367777E-06
   0.42150   0.24597946E-06
   0.42250   0.24022873E-06
   0.42350   0.23616548E-06
   0.42450   0.23364704E-06
   0.42550   0.23262248E-06
   0.42650   0.23311783E-06
   0.42750   0.23522804E-06
   0.42850   0.23911338E-06
   0.42950   0.24499951E-06
   0.43050   0.25318096E-06
   0.43150   0.26402819E-06
   0.43250   0.27799939E-06
   0.43350   0.29565797E-06
   0.43450   0.31769844E-06
   0.43550   0.34498376E-06
   0.43650   0.37860005E-06
   0.43750   0.41993673E-06
   0.43850   0.47080641E-06
   0.43950   0.53362805E-06
   0.44050   0.61171386E-06
   0.44150   0.70973408E-06
   0.44250   0.83449794E-06
   0.44350   0.99631836E-06
   0.44450   0.12115014E-05
   0.44550   0.15070624E-05
   0.44650   0.19299075E-05
   0.44750   0.25647371E-05
   0.44850   0.35673581E-05
   0.44950   0.52182959E-05
   0.45050   0.79011334E-05
   0.45150   0.11785101E-04
   0.45250   0.17371125E-04
   0.45350   0.25225279E-04
   0.45450   0.35710018E-04
   0.45550   0.48103484E-04
   0.45650   0.63051521E-04
   0.45750   0.87491404E-04
   0.45850   0.13009735E-03
   0.45950   0.18836316E-03
   0.46050   0.24064450E-03
   0.46150   0.27513289E-03
   0.46250   0.31026101E-03
   0.46350   0.52721309E-03
   0.46450   0.50301792E-03
   0.46550   0.72268886E-03
   0.46650   0.94779494E-03
   0.46750   0.98535407E-03
   0.46850   0.99479745E-03
   0.46950   0.10835647E-02
   0.47050   0.12400958E-02
   0.47150   0.14442144E-02
   0.47250   0.16932444E-02
   0.47350   0.20237749E-02
   0.47450   0.26202262E-02
   0.47550   0.52125519E-02
   0.47650   0.19064358E-01
   0.47750   0.51089007E-01
   0.47850   0.16104116E+00
   0.47950   0.87082917E-02
   0.48050   0.73803766E-02
   0.48150   0.15726754E-01
   0.48250   0.13303203E-01
   0.48350   0.84913019E-02
   0.48450   0.60607051E-02
   0.48550   0.48995255E-02
   0.48650   0.42154309E-02
   0.48750   0.37338103E-02
   0.48850   0.33390014E-02
   0.48950   0.29618680E-02
   0.49050   0.25817472E-02
   0.49150   0.22110352E-02
   0.49250   0.18612957E-02
   0.49350   0.15334187E-02
   0.49450   0.12280276E-02
   0.49550   0.95256977E-03
   0.49650   0.71745575E-03
   0.49750   0.52888278E-03
   0.49850   0.38713810E-03
   0.49950   0.29087986E-03
   0.50050   0.23269547E-03
   0.50150   0.20313643E-03
   0.50250   0.19453985E-03
   0.50350   0.20057907E-03
   0.50450   0.21600671E-03
   0.50550   0.23664530E-03
   0.50650   0.25935026E-03
   0.50750   0.28184889E-03
   0.50850   0.30252108E-03
   0.50950   0.32022226E-03
   0.51050   0.33419076E-03
   0.51150   0.34401438E-03
   0.51250   0.34960723E-03
   0.51350   0.35116926E-03
   0.51450   0.34913578E-03
   0.51550   0.34413551E-03
   0.51650   0.33696002E-03
   0.51750   0.32851897E-03
   0.51850   0.31971885E-03
   0.51950   0.31105612E-03
   0.52050   0.30097680E-03
   0.52150   0.28675571E-03
   0.52250   0.27745104E-03
   0.52350   0.27738372E-03
   0.52450   0.28539589E-03
   0.52550   0.30014670E-03
   0.52650   0.32059694E-03
   0.52750   0.34595438E-03
   0.52850   0.37561965E-03
   0.52950   0.40911860E-03
   0.53050   0.44588640E-03
   0.53150   0.48428986E-03
   0.53250   0.51620760E-03
   0.53350   0.51207416E-03
   0.53450   0.47426426E-03
   0.53550   0.43535410E-03
   0.53650   0.39996597E-03
   0.53750   0.36688082E-03
   0.53850   0.33511309E-03
   0.53950   0.30439594E-03
   0.54050   0.27502773E-03
   0.54150   0.24741841E-03
   0.54250   0.22141285E-03
   0.54350   0.19593682E-03
   0.54450   0.16967484E-03
   0.54550   0.14245615E-03
   0.54650   0.11585200E-03
   0.54750   0.92260103E-04
   0.54850   0.73504722E-04
   0.54950   0.60169303E-04
   0.55050   0.51785504E-04
   0.55150   0.47349720E-04
   0.55250   0.45753586E-04
   0.55350   0.46016226E-04
   0.55450   0.47364134E-04
   0.55550   0.49230392E-04
   0.55650   0.51222592E-04
   0.55750   0.53084561E-04
   0.55850   0.54661698E-04
   0.55950   0.55872646E-04
   0.56050   0.56687033E-04
   0.56150   0.57108369E-04
   0.56250   0.57161036E-04
   0.56350   0.56880592E-04
   0.56450   0.56306759E-04
   0.56550   0.55478624E-04
   0.56650   0.54431664E-04
   0.56750   0.53196247E-04
   0.56850   0.51797335E-04
   0.56950   0.50255050E-04
   0.57050   0.48585836E-04
   0.57150   0.46803965E-04
   0.57250   0.44923105E-04
   0.57350   0.42957778E-04
   0.57450   0.40924540E-04
   0.57550   0.38842747E-04
   0.57650   0.36734818E-04
   0.57750   0.34626060E-04
   0.57850   0.32543965E-04
   0.57950   0.30517192E-04
   0.58050   0.28574286E-04
   0.58150   0.26742438E-04
   0.58250   0.25046649E-04
   0.58350   0.23509889E-04
   0.58450   0.22155329E-04
   0.58550   0.21012507E-04
   0.58650   0.20130658E-04
   0.58750   0.19604488E-04
   0.58850   0.19618821E-04
   0.58950   0.20512720E-04
   0.59050   0.22832859E-04
   0.59150   0.27266138E-04
   0.59250   0.34265351E-04
   0.59350   0.43394775E-04
   0.59450   0.53078842E-04
   0.59550   0.61443614E-04
   0.59650   0.67484027E-04
   0.59750   0.71285715E-04
   0.59850   0.73460811E-04
   0.59950   0.74631360E-04
   0.60050   0.75241245E-04
   0.60150   0.75562857E-04
   0.60250   0.75754811E-04
   0.60350   0.75912190E-04
   0.60450   0.76098717E-04
   0.60550   0.76364820E-04
   0.60650   0.76756900E-04
   0.60750   0.77321747E-04
   0.60850   0.78108649E-04
   0.60950   0.79170706E-04
   0.61050   0.80566373E-04
   0.61150   0.82362065E-04
   0.61250   0.84636311E-04
   0.61350   0.87484950E-04
   0.61450   0.91022492E-04
   0.61550   0.95350726E-04
   0.61650   0.10031983E-03
   0.61750   0.10391088E-03
   0.61850   0.98037046E-04
   0.61950   0.85217202E-04
   0.62050   0.74740958E-04
   0.62150   0.68003181E-04
   0.62250   0.65298562E-04
   0.62350   0.65422159E-04
   0.62450   0.68320500E-04
   0.62550   0.77306016E-04
   0.62650   0.88634901E-04
   0.62750   0.87484084E-04
   0.62850   0.79636469E-04
   0.62950   0.73060735E-04
   0.63050   0.68949754E-04
   0.63150   0.66535744E-04
   0.63250   0.65193803E-04
   0.63350   0.64571715E-04
   0.63450   0.64488675E-04
   0.63550   0.64866341E-04
   0.63650   0.65693428E-04
   0.63750   0.67009430E-04
   0.63850   0.68901492E-04
   0.63950   0.71521208E-04
   0.64050   0.75171869E-04
   0.64150   0.80781421E-04
   0.64250   0.93411858E-04
   0.64350   0.14644455E-03
   0.64450   0.19020843E-03
   0.64550   0.16524443E-03
   0.64650   0.17036092E-03
   0.64750   0.19048582E-03
   0.64850   0.22240545E-03
   0.64950   0.26879989E-03
   0.65050   0.33877755E-03
   0.65150   0.46148634E-03
   0.65250   0.72153297E-03
   0.65350   0.12460425E-02
   0.65450   0.12177747E-02
   0.65550   0.11743881E-02
   0.65650   0.15085222E-02
   0.65750   0.21421355E-02
   0.65850   0.36205843E-02
   0.65950   0.78503042E-02
   0.66050   0.82900301E-01
   0.66150   0.68568565E-01
   0.66250   0.59972089E-01
   0.66350   0.17968148E-01
   0.66450   0.13449589E-01
   0.66550   0.60946885E-02
   0.66650   0.36895010E-02
   0.66750   0.22081099E-02
   0.66850   0.18054781E-02
   0.66950   0.19684001E-02
   0.67050   0.20630995E-02
   0.67150   0.19695712E-02
   0.67250   0.18105994E-02
   0.67350   0.16762767E-02
   0.67450   0.15756729E-02
   0.67550   0.14776363E-02
   0.67650   0.13510577E-02
   0.67750   0.11898738E-02
   0.67850   0.10179742E-02
   0.67950   0.87370054E-03
   0.68050   0.78653463E-03
   0.68150   0.76182606E-03
   0.68250   0.78197900E-03
   0.68350   0.82014658E-03
   0.68450   0.85445284E-03
   0.68550   0.87363395E-03
   0.68650   0.87015552E-03
   0.68750   0.82064548E-03
   0.68850   0.73892559E-03
   0.68950   0.66536886E-03
   0.69050   0.60520024E-03
   0.69150   0.55657438E-03
   0.69250   0.51785441E-03
   0.69350   0.48807947E-03
   0.69450   0.46657457E-03
   0.69550   0.45243074E-03
   0.69650   0.44413868E-03
   0.69750   0.43953556E-03
   0.69850   0.43606080E-03
   0.69950   0.43119685E-03
   0.70050   0.42294592E-03
   0.70150   0.41022841E-03
   0.70250   0.39312878E-03
   0.70350   0.37292441E-03
   0.70450   0.35157148E-03
   0.70550   0.32846918E-03
   0.70650   0.30242463E-03
   0.70750   0.28075918E-03
   0.70850   0.26637738E-03
   0.70950   0.25885698E-03
   0.71050   0.25665117E-03
   0.71150   0.25774102E-03
   0.71250   0.26002791E-03
   0.71350   0.26165674E-03
   0.71450   0.26126398E-03
   0.71550   0.25812353E-03
   0.71650   0.25217675E-03
   0.71750   0.24395528E-03
   0.71850   0.23442287E-03
   0.71950   0.22477149E-03
   0.72050   0.21620764E-03
   0.72150   0.20976023E-03
   0.72250   0.20613406E-03
   0.72350   0.20562464E-03
   0.72450   0.20810083E-03
   0.72550   0.21305244E-03
   0.72650   0.21969157E-03
   0.72750   0.22709010E-03
   0.72850   0.23433320E-03
   0.72950   0.24067203E-03
   0.73050   0.24567483E-03
   0.73150   0.24944512E-03
   0.73250   0.25302634E-03
   0.73350   0.25714905E-03
   0.73450   0.26161858E-03
   0.73550   0.26701405E-03
   0.73650   0.27394062E-03
   0.73750   0.28276676E-03
   0.73850   0.29357456E-03
   0.73950   0.30615053E-03
   0.74050   0.32001120E-03
   0.74150   0.33446122E-03
   0.74250   0.34867789E-03
   0.74350   0.36181227E-03
   0.74450   0.37309452E-03
   0.74550   0.38193041E-03
   0.74650   0.38797781E-03
   0.74750   0.39119384E-03
   0.74850   0.39184882E-03
   0.74950   0.39050588E-03
   0.75050   0.38797100E-03
   0.75150   0.38521990E-03
   0.75250   0.38331078E-03
   0.75350   0.38329273E-03
   0.75450   0.38611979E-03
   0.75550   0.39257880E-03
   0.75650   0.40323910E-03
   0.75750   0.41842842E-03
   0.75850   0.43823858E-03
   0.75950   0.46255934E-03
   0.76050   0.49113820E-03
   0.76150   0.52365958E-03
   0.76250   0.55983639E-03
   0.76350   0.59950532E-03
   0.76450   0.64271910E-03
   0.76550   0.68982749E-03
   0.76650   0.74154371E-03
   0.76750   0.79899153E-03
   0.76850   0.86373306E-03
   0.76950   0.93777507E-03
   0.77050   0.10235546E-02
   0.77150   0.11238995E-02
   0.77250   0.12419543E-02
   0.77350   0.13810701E-02
   0.77450   0.15447893E-02
   0.77550   0.17384542E-02
   0.77650   0.19922862E-02
   0.77750   0.37369949E-02
   0.77850   0.15883610E-01
   0.77950   0.51211249E-02
   0.78050   0.48862388E-02
   0.78150   0.53333407E-02
   0.78250   0.59816982E-02
   0.78350   0.69343196E-02
   0.78450   0.91594895E-02
   0.78550   0.17366000E-01
   0.78650   0.33096191E-01
   0.78750   0.71852006E-01
   0.78850   0.98664604E-01
   0.78950   0.10180977E+00
   0.79050   0.12329871E+00
   0.79150   0.38814506E+00
   0.79250   0.23586984E+00
   0.79350   0.24922338E+00
   0.79450   0.16249475E+00
   0.79550   0.10408848E+00
   0.79650   0.78367360E-01
   0.79750   0.64672112E-01
   0.79850   0.54159675E-01
   0.79950   0.37691157E-01
   0.80050   0.23215931E-01
   0.80150   0.17349349E-01
   0.80250   0.16740764E-01
   0.80350   0.16674304E-01
   0.80450   0.16155133E-01
   0.80550   0.15862243E-01
   0.80650   0.15948251E-01
   0.80750   0.15900936E-01
   0.80850   0.15275138E-01
   0.80950   0.14083722E-01
   0.81050   0.12644236E-01
   0.81150   0.11319087E-01
   0.81250   0.10347113E-01
   0.81350   0.97780488E-02
   0.81450   0.95133381E-02
   0.81550   0.93995007E-02
   0.81650   0.93067866E-02
   0.81750   0.91656996E-02
   0.81850   0.89642294E-02
   0.81950   0.87247435E-02
   0.82050   0.84796501E-02
   0.82150   0.82546733E-02
   0.82250   0.80626318E-02
   0.82350   0.79078292E-02
   0.82450   0.77975010E-02
   0.82550   0.77587375E-02
   0.82650   0.78151915E-02
   0.82750   0.79021119E-02
   0.82850   0.79987217E-02
   0.82950   0.81117386E-02
   0.83050   0.82408227E-02
   0.83150   0.83773248E-02
   0.83250   0.85083032E-02
   0.83350   0.86222794E-02
   0.83450   0.87148985E-02
   0.83550   0.87928809E-02
   0.83650   0.88753914E-02
   0.83750   0.89927698E-02
   0.83850   0.91829142E-02
   0.83950   0.94855158E-02
   0.84050   0.99343052E-02
   0.84150   0.10547738E-01
   0.84250   0.11315632E-01
   0.84350   0.12173546E-01
   0.84450   0.13063523E-01
   0.84550   0.13971196E-01
   0.84650   0.14864695E-01
   0.84750   0.15705973E-01
   0.84850   0.16407300E-01
   0.84950   0.16947566E-01
   0.85050   0.17407684E-01
   0.85150   0.17851761E-01
   0.85250   0.18326888E-01
   0.85350   0.18863892E-01
   0.85450   0.19475974E-01
   0.85550   0.20159701E-01
   0.85650   0.20898947E-01
   0.85750   0.21671129E-01
   0.85850   0.22454545E-01
   0.85950   0.23235267E-01
   0.86050   0.24012176E-01
   0.86150   0.24799306E-01
   0.86250   0.25625462E-01
   0.86350   0.26531640E-01
   0.86450   0.27567053E-01
   0.86550   0.28784534E-01
   0.86650   0.30236194E-01
   0.86750   0.31970136E-01
   0.86850   0.34028906E-01
   0.86950   0.36449902E-01
   0.87050   0.39267369E-01
   0.87150   0.42515561E-01
   0.87250   0.46232909E-01
   0.87350   0.50468519E-01
   0.87450   0.55295423E-01
   0.87550   0.60845770E-01
   0.87650   0.67440063E-01
   0.87750   0.76512411E-01
   0.87850   0.12100897E+00
   0.87950   0.25490883E+00
   0.88050   0.10894416E+00
   0.88150   0.13949785E+00
   0.88250   0.20300171E+00
   0.88350   0.29183817E+00
   0.88450   0.19245642E+00
   0.88550   0.20065287E+00
   0.88650   0.24097814E+00
   0.88750   0.31047216E+00
   0.88850   0.37243867E+00
   0.88950   0.47036484E+00
   0.89050   0.64674801E+00
   0.89150   0.79427475E+00
   0.89250   0.81538904E+00
   0.89350   0.78794938E+00
   0.89450   0.70791167E+00
   0.89550   0.59446865E+00
   0.89650   0.56315780E+00
   0.89750   0.59224576E+00
   0.89850   0.60966581E+00
   0.89950   0.60021645E+00
   0.90050   0.56489825E+00
   0.90150   0.50730467E+00
   0.90250   0.43777537E+00
   0.90350   0.36768419E+00
   0.90450   0.30999881E+00
   0.90550   0.27473360E+00
   0.90650   0.26330394E+00
   0.90750   0.26810274E+00
   0.90850   0.27836207E+00
   0.90950   0.28648785E+00
   0.91050   0.28979352E+00
   0.91150   0.28853694E+00
   0.91250   0.28354815E+00
   0.91350   0.27583849E+00
   0.91450   0.26773962E+00
   0.91550   0.26258478E+00
   0.91650   0.26237875E+00
   0.91750   0.26643443E+00
   0.91850   0.27260622E+00
   0.91950   0.27918029E+00
   0.92050   0.28540653E+00
   0.92150   0.29108834E+00
   0.92250   0.29620811E+00
   0.92350   0.30081037E+00
   0.92450   0.30501914E+00
   0.92550   0.30909303E+00
   0.92650   0.31346557E+00
   0.92750   0.31873459E+00
   0.92850   0.32559013E+00
   0.92950   0.33470461E+00
   0.93050   0.34662545E+00
   0.93150   0.36169463E+00
   0.93250   0.37998235E+00
   0.93350   0.40119928E+00
   0.93450   0.42457449E+00
   0.93550   0.44878539E+00
   0.93650   0.47217977E+00
   0.93750   0.49344155E+00
   0.93850   0.51224673E+00
   0.93950   0.52920240E+00
   0.94050   0.54522645E+00
   0.94150   0.56109667E+00
   0.94250   0.57737947E+00
   0.94350   0.59445703E+00
   0.94450   0.61226541E+00
   0.94550   0.62988633E+00
   0.94650   0.64766490E+00
   0.94750   0.66641110E+00
   0.94850   0.68739611E+00
   0.94950   0.71357352E+00
   0.95050   0.70477933E+00
   0.95150   0.72000551E+00
   0.95250   0.73864281E+00
   0.95350   0.75924790E+00
   0.95450   0.78597462E+00
   0.95550   0.83348000E+00
   0.95650   0.90513599E+00
   0.95750   0.98415130E+00
   0.95850   0.10618106E+01
   0.95950   0.11277425E+01
   0.96050   0.11738892E+01
   0.96150   0.12089075E+01
   0.96250   0.12460161E+01
   0.96350   0.12908145E+01
   0.96450   0.13491050E+01
   0.96550   0.14291507E+01
   0.96650   0.15279542E+01
   0.96750   0.16269330E+01
   0.96850   0.16997876E+01
   0.96950   0.17324761E+01
   0.97050   0.17458005E+01
   0.97150   0.17711244E+01
   0.97250   0.18149502E+01
   0.97350   0.18616236E+01
   0.97450   0.18925854E+01
   0.97550   0.18991449E+01
   0.97650   0.18829590E+01
   0.97750   0.18541859E+01
   0.97850   0.18265352E+01
   0.97950   0.18102227E+01
   0.98050   0.18062751E+01
   0.98150   0.18108101E+01
   0.98250   0.18198205E+01
   0.98350   0.18295414E+01
   0.98450   0.18350962E+01
   0.98550   0.18335272E+01
   0.98650   0.18252288E+01
   0.98750   0.18166211E+01
   0.98850   0.18255748E+01
   0.98950   0.18630173E+01
   0.99050   0.18967849E+01
   0.99150   0.19004387E+01
   0.99250   0.18909125E+01
   0.99350   0.18810656E+01
   0.99450   0.18707535E+01
   0.99550   0.18637016E+01
   0.99650   0.18578774E+01
   0.99750   0.18495169E+01
   0.99850   0.18362873E+01
   0.99950   0.18148717E+01
