# Transmission, k-averaged
# Date: 2021-05-13
#   E [eV]           T [G0]
   0.00050   0.28720611E+00
   0.00150   0.65184377E-01
   0.00250   0.44902816E-01
   0.00350   0.12790220E-01
   0.00450   0.24809252E-01
   0.00550   0.11854090E-01
   0.00650   0.28262310E-01
   0.00750   0.64975568E-02
   0.00850   0.33653431E-01
   0.00950   0.13239009E-01
   0.01050   0.50032088E-02
   0.01150   0.10845962E-01
   0.01250   0.67516275E-01
   0.01350   0.62111411E-02
   0.01450   0.37049395E-02
   0.01550   0.65394477E-02
   0.01650   0.67572109E-01
   0.01750   0.10097980E-01
   0.01850   0.31396148E-02
   0.01950   0.25622328E-02
   0.02050   0.45085060E-02
   0.02150   0.33131670E-01
   0.02250   0.13714172E-01
   0.02350   0.29693458E-02
   0.02450   0.18198984E-02
   0.02550   0.20495804E-02
   0.02650   0.45024701E-02
   0.02750   0.39913103E-01
   0.02850   0.13796721E-01
   0.02950   0.35677997E-02
   0.03050   0.23327600E-02
   0.03150   0.25611841E-02
   0.03250   0.45486647E-02
   0.03350   0.16231686E-01
   0.03450   0.73293470E-01
   0.03550   0.14594013E-01
   0.03650   0.66443607E-02
   0.03750   0.53173774E-02
   0.03850   0.62485314E-02
   0.03950   0.10586370E-01
   0.04050   0.27149150E-01
   0.04150   0.58140282E-01
   0.04250   0.27873093E-01
   0.04350   0.14196762E-01
   0.04450   0.10598055E-01
   0.04550   0.10387242E-01
   0.04650   0.11809103E-01
   0.04750   0.13906693E-01
   0.04850   0.15016899E-01
   0.04950   0.13929193E-01
   0.05050   0.11691400E-01
   0.05150   0.97107468E-02
   0.05250   0.84041748E-02
   0.05350   0.76887482E-02
   0.05450   0.73981066E-02
   0.05550   0.73778271E-02
   0.05650   0.74781785E-02
   0.05750   0.75498121E-02
   0.05850   0.74768350E-02
   0.05950   0.72252140E-02
   0.06050   0.68482896E-02
   0.06150   0.64371484E-02
   0.06250   0.60672290E-02
   0.06350   0.57779294E-02
   0.06450   0.55775079E-02
   0.06550   0.54543247E-02
   0.06650   0.53856722E-02
   0.06750   0.53439606E-02
   0.06850   0.53023547E-02
   0.06950   0.52406252E-02
   0.07050   0.51497067E-02
   0.07150   0.50326237E-02
   0.07250   0.49011903E-02
   0.07350   0.47704726E-02
   0.07450   0.46538389E-02
   0.07550   0.45601623E-02
   0.07650   0.44931001E-02
   0.07750   0.44516423E-02
   0.07850   0.44312263E-02
   0.07950   0.44250954E-02
   0.08050   0.44258120E-02
   0.08150   0.44268356E-02
   0.08250   0.44239284E-02
   0.08350   0.44160290E-02
   0.08450   0.44053467E-02
   0.08550   0.43966942E-02
   0.08650   0.43963599E-02
   0.08750   0.44108904E-02
   0.08850   0.44459165E-02
   0.08950   0.45043970E-02
   0.09050   0.45802477E-02
   0.09150   0.46227281E-02
   0.09250   0.44563501E-02
   0.09350   0.41296072E-02
   0.09450   0.38214559E-02
   0.09550   0.35544366E-02
   0.09650   0.33221862E-02
   0.09750   0.31184347E-02
   0.09850   0.29387223E-02
   0.09950   0.27797224E-02
   0.10050   0.26386827E-02
   0.10150   0.25131346E-02
   0.10250   0.24007845E-02
   0.10350   0.22995048E-02
   0.10450   0.22073707E-02
   0.10550   0.21227102E-02
   0.10650   0.20441436E-02
   0.10750   0.19706045E-02
   0.10850   0.19013307E-02
   0.10950   0.18358307E-02
   0.11050   0.17738288E-02
   0.11150   0.17151986E-02
   0.11250   0.16598960E-02
   0.11350   0.16078993E-02
   0.11450   0.15591655E-02
   0.11550   0.15136022E-02
   0.11650   0.14710568E-02
   0.11750   0.14313200E-02
   0.11850   0.13941387E-02
   0.11950   0.13592364E-02
   0.12050   0.13263356E-02
   0.12150   0.12951776E-02
   0.12250   0.12655410E-02
   0.12350   0.12372517E-02
   0.12450   0.12101880E-02
   0.12550   0.11842782E-02
   0.12650   0.11594923E-02
   0.12750   0.11358310E-02
   0.12850   0.11133114E-02
   0.12950   0.10919543E-02
   0.13050   0.10717728E-02
   0.13150   0.10527641E-02
   0.13250   0.10349053E-02
   0.13350   0.10181530E-02
   0.13450   0.10024456E-02
   0.13550   0.98770857E-03
   0.13650   0.97386102E-03
   0.13750   0.96082356E-03
   0.13850   0.94852434E-03
   0.13950   0.93690527E-03
   0.14050   0.92592539E-03
   0.14150   0.91556233E-03
   0.14250   0.90581184E-03
   0.14350   0.89668465E-03
   0.14450   0.88820246E-03
   0.14550   0.88039297E-03
   0.14650   0.87328441E-03
   0.14750   0.86690130E-03
   0.14850   0.86126057E-03
   0.14950   0.85636956E-03
   0.15050   0.85222512E-03
   0.15150   0.84881455E-03
   0.15250   0.84611762E-03
   0.15350   0.84410963E-03
   0.15450   0.84276497E-03
   0.15550   0.84206078E-03
   0.15650   0.84198010E-03
   0.15750   0.84251439E-03
   0.15850   0.84366457E-03
   0.15950   0.84544095E-03
   0.16050   0.84786152E-03
   0.16150   0.85094874E-03
   0.16250   0.85472566E-03
   0.16350   0.85921021E-03
   0.16450   0.86440949E-03
   0.16550   0.87031274E-03
   0.16650   0.87688322E-03
   0.16750   0.88404783E-03
   0.16850   0.89168060E-03
   0.16950   0.89957414E-03
   0.17050   0.90738002E-03
   0.17150   0.91447151E-03
   0.17250   0.91958273E-03
   0.17350   0.91969490E-03
   0.17450   0.90589811E-03
   0.17550   0.85122552E-03
   0.17650   0.75176830E-03
   0.17750   0.66633103E-03
   0.17850   0.60215348E-03
   0.17950   0.55213436E-03
   0.18050   0.51156699E-03
   0.18150   0.47765195E-03
   0.18250   0.44864244E-03
   0.18350   0.42338858E-03
   0.18450   0.40109930E-03
   0.18550   0.38121096E-03
   0.18650   0.36331060E-03
   0.18750   0.34708861E-03
   0.18850   0.33230832E-03
   0.18950   0.31878552E-03
   0.19050   0.30637451E-03
   0.19150   0.29495818E-03
   0.19250   0.28444090E-03
   0.19350   0.27474333E-03
   0.19450   0.26579856E-03
   0.19550   0.25754934E-03
   0.19650   0.24994597E-03
   0.19750   0.24294460E-03
   0.19850   0.23650630E-03
   0.19950   0.23059601E-03
   0.20050   0.22518195E-03
   0.20150   0.22023528E-03
   0.20250   0.21572960E-03
   0.20350   0.21164090E-03
   0.20450   0.20794735E-03
   0.20550   0.20462924E-03
   0.20650   0.20166895E-03
   0.20750   0.19905101E-03
   0.20850   0.19676208E-03
   0.20950   0.19479105E-03
   0.21050   0.19312922E-03
   0.21150   0.19177052E-03
   0.21250   0.19071212E-03
   0.21350   0.18995600E-03
   0.21450   0.18951375E-03
   0.21550   0.18942356E-03
   0.21650   0.18982773E-03
   0.21750   0.19129808E-03
   0.21850   0.19433987E-03
   0.21950   0.19792089E-03
   0.22050   0.20167897E-03
   0.22150   0.20567045E-03
   0.22250   0.20998443E-03
   0.22350   0.21470878E-03
   0.22450   0.21993503E-03
   0.22550   0.22576620E-03
   0.22650   0.23232562E-03
   0.22750   0.23976782E-03
   0.22850   0.24829412E-03
   0.22950   0.25817589E-03
   0.23050   0.26979062E-03
   0.23150   0.28367343E-03
   0.23250   0.30054565E-03
   0.23350   0.32086310E-03
   0.23450   0.33979435E-03
   0.23550   0.33980262E-03
   0.23650   0.32731780E-03
   0.23750   0.31346190E-03
   0.23850   0.30046894E-03
   0.23950   0.28859841E-03
   0.24050   0.27776809E-03
   0.24150   0.26784625E-03
   0.24250   0.25871032E-03
   0.24350   0.25025700E-03
   0.24450   0.24240107E-03
   0.24550   0.23507260E-03
   0.24650   0.22821367E-03
   0.24750   0.22177603E-03
   0.24850   0.21571905E-03
   0.24950   0.21000819E-03
   0.25050   0.20461384E-03
   0.25150   0.19951037E-03
   0.25250   0.19467543E-03
   0.25350   0.19008946E-03
   0.25450   0.18573517E-03
   0.25550   0.18159731E-03
   0.25650   0.17766232E-03
   0.25750   0.17391823E-03
   0.25850   0.17035438E-03
   0.25950   0.16696141E-03
   0.26050   0.16373106E-03
   0.26150   0.16065614E-03
   0.26250   0.15773044E-03
   0.26350   0.15494865E-03
   0.26450   0.15230630E-03
   0.26550   0.14979973E-03
   0.26650   0.14742598E-03
   0.26750   0.14518281E-03
   0.26850   0.14306858E-03
   0.26950   0.14108227E-03
   0.27050   0.13922341E-03
   0.27150   0.13749202E-03
   0.27250   0.13588865E-03
   0.27350   0.13441429E-03
   0.27450   0.13307043E-03
   0.27550   0.13185898E-03
   0.27650   0.13078233E-03
   0.27750   0.12984336E-03
   0.27850   0.12904554E-03
   0.27950   0.12839284E-03
   0.28050   0.12788996E-03
   0.28150   0.12754234E-03
   0.28250   0.12735632E-03
   0.28350   0.12733926E-03
   0.28450   0.12749976E-03
   0.28550   0.12784793E-03
   0.28650   0.12839561E-03
   0.28750   0.12915678E-03
   0.28850   0.13014795E-03
   0.28950   0.13138873E-03
   0.29050   0.13290232E-03
   0.29150   0.13471604E-03
   0.29250   0.13686137E-03
   0.29350   0.13937264E-03
   0.29450   0.14228077E-03
   0.29550   0.14559062E-03
   0.29650   0.14919475E-03
   0.29750   0.15249242E-03
   0.29850   0.15252104E-03
   0.29950   0.14275892E-03
   0.30050   0.12948121E-03
   0.30150   0.11871078E-03
   0.30250   0.11033210E-03
   0.30350   0.10371811E-03
   0.30450   0.98429227E-04
   0.30550   0.94179930E-04
   0.30650   0.90783709E-04
   0.30750   0.88119115E-04
   0.30850   0.86110624E-04
   0.30950   0.84718471E-04
   0.31050   0.83934363E-04
   0.31150   0.83781641E-04
   0.31250   0.84319865E-04
   0.31350   0.85654952E-04
   0.31450   0.87957233E-04
   0.31550   0.91492460E-04
   0.31650   0.96674798E-04
   0.31750   0.10415858E-03
   0.31850   0.11499893E-03
   0.31950   0.13093071E-03
   0.32050   0.15481525E-03
   0.32150   0.19111761E-03
   0.32250   0.24506077E-03
   0.32350   0.31428633E-03
   0.32450   0.36340195E-03
   0.32550   0.33274540E-03
   0.32650   0.24830841E-03
   0.32750   0.17628363E-03
   0.32850   0.13056156E-03
   0.32950   0.10313262E-03
   0.33050   0.86446307E-04
   0.33150   0.76002718E-04
   0.33250   0.69304435E-04
   0.33350   0.64951266E-04
   0.33450   0.62133011E-04
   0.33550   0.60363993E-04
   0.33650   0.59343252E-04
   0.33750   0.58878857E-04
   0.33850   0.58845555E-04
   0.33950   0.59160237E-04
   0.34050   0.59767302E-04
   0.34150   0.60629689E-04
   0.34250   0.61723214E-04
   0.34350   0.63032974E-04
   0.34450   0.64551052E-04
   0.34550   0.66275046E-04
   0.34650   0.68207235E-04
   0.34750   0.70354276E-04
   0.34850   0.72727307E-04
   0.34950   0.75342708E-04
   0.35050   0.78223609E-04
   0.35150   0.81402657E-04
   0.35250   0.84926833E-04
   0.35350   0.88865854E-04
   0.35450   0.93327006E-04
   0.35550   0.98481738E-04
   0.35650   0.10461489E-03
   0.35750   0.11221855E-03
   0.35850   0.12217794E-03
   0.35950   0.13615617E-03
   0.36050   0.15743083E-03
   0.36150   0.19278606E-03
   0.36250   0.25565104E-03
   0.36350   0.35151493E-03
   0.36450   0.19468798E-03
   0.36550   0.79621328E-03
   0.36650   0.11090189E-02
   0.36750   0.13365351E-02
   0.36850   0.14618820E-02
   0.36950   0.16360621E-02
   0.37050   0.20107373E-02
   0.37150   0.20599242E-02
   0.37250   0.16457117E-02
   0.37350   0.14409026E-02
   0.37450   0.14257743E-02
   0.37550   0.15026946E-02
   0.37650   0.16128012E-02
   0.37750   0.17172014E-02
   0.37850   0.18003781E-02
   0.37950   0.18549731E-02
   0.38050   0.10405851E-02
   0.38150   0.11034859E-02
   0.38250   0.11059461E-02
   0.38350   0.30103761E-02
   0.38450   0.42490903E-02
   0.38550   0.22079602E-02
   0.38650   0.14144899E-02
   0.38750   0.11764261E-02
   0.38850   0.11136386E-02
   0.38950   0.10873755E-02
   0.39050   0.11187213E-02
   0.39150   0.11434651E-02
   0.39250   0.11350440E-02
   0.39350   0.11603547E-02
   0.39450   0.12283336E-02
   0.39550   0.12852934E-02
   0.39650   0.13099643E-02
   0.39750   0.13433708E-02
   0.39850   0.14234884E-02
   0.39950   0.15458995E-02
   0.40050   0.16702915E-02
   0.40150   0.17609494E-02
   0.40250   0.18250645E-02
   0.40350   0.18995788E-02
   0.40450   0.20144675E-02
   0.40550   0.21743455E-02
   0.40650   0.23578194E-02
   0.40750   0.25303815E-02
   0.40850   0.26697083E-02
   0.40950   0.27837085E-02
   0.41050   0.29019406E-02
   0.41150   0.30515227E-02
   0.41250   0.32331056E-02
   0.41350   0.33750795E-02
   0.41450   0.32365937E-02
   0.41550   0.28445560E-02
   0.41650   0.24940891E-02
   0.41750   0.22225718E-02
   0.41850   0.20127117E-02
   0.41950   0.18467394E-02
   0.42050   0.17102372E-02
   0.42150   0.15924942E-02
   0.42250   0.14865256E-02
   0.42350   0.13886883E-02
   0.42450   0.12978164E-02
   0.42550   0.12140658E-02
   0.42650   0.11378520E-02
   0.42750   0.10691973E-02
   0.42850   0.10075585E-02
   0.42950   0.95198822E-03
   0.43050   0.90142043E-03
   0.43150   0.85492543E-03
   0.43250   0.81185537E-03
   0.43350   0.77186967E-03
   0.43450   0.73486508E-03
   0.43550   0.70085743E-03
   0.43650   0.66986494E-03
   0.43750   0.64183027E-03
   0.43850   0.61659364E-03
   0.43950   0.59390714E-03
   0.44050   0.57346775E-03
   0.44150   0.55494835E-03
   0.44250   0.53801324E-03
   0.44350   0.52231317E-03
   0.44450   0.50745904E-03
   0.44550   0.49297354E-03
   0.44650   0.47821476E-03
   0.44750   0.46225995E-03
   0.44850   0.44373993E-03
   0.44950   0.42066700E-03
   0.45050   0.39054314E-03
   0.45150   0.35179607E-03
   0.45250   0.30846387E-03
   0.45350   0.27547122E-03
   0.45450   0.26889317E-03
   0.45550   0.28557170E-03
   0.45650   0.30964764E-03
   0.45750   0.33064422E-03
   0.45850   0.34568610E-03
   0.45950   0.35516798E-03
   0.46050   0.36014771E-03
   0.46150   0.36150901E-03
   0.46250   0.35981039E-03
   0.46350   0.35532058E-03
   0.46450   0.34809348E-03
   0.46550   0.33807012E-03
   0.46650   0.32525766E-03
   0.46750   0.31009491E-03
   0.46850   0.29412369E-03
   0.46950   0.28078916E-03
   0.47050   0.27518504E-03
   0.47150   0.28098095E-03
   0.47250   0.29639414E-03
   0.47350   0.31513651E-03
   0.47450   0.33157924E-03
   0.47550   0.34337663E-03
   0.47650   0.35057007E-03
   0.47750   0.35407973E-03
   0.47850   0.35488856E-03
   0.47950   0.35378465E-03
   0.48050   0.35134048E-03
   0.48150   0.34795751E-03
   0.48250   0.34391508E-03
   0.48350   0.33940881E-03
   0.48450   0.33457749E-03
   0.48550   0.32952178E-03
   0.48650   0.32431723E-03
   0.48750   0.31902353E-03
   0.48850   0.31369139E-03
   0.48950   0.30836737E-03
   0.49050   0.30309771E-03
   0.49150   0.29793105E-03
   0.49250   0.29292179E-03
   0.49350   0.28813613E-03
   0.49450   0.28366849E-03
   0.49550   0.27969235E-03
   0.49650   0.27664672E-03
   0.49750   0.27607469E-03
   0.49850   0.28308266E-03
   0.49950   0.29822631E-03
   0.50050   0.31458779E-03
   0.50150   0.33102155E-03
   0.50250   0.34792430E-03
   0.50350   0.36571847E-03
   0.50450   0.38476990E-03
   0.50550   0.40542099E-03
   0.50650   0.42802232E-03
   0.50750   0.45295828E-03
   0.50850   0.48067080E-03
   0.50950   0.51168533E-03
   0.51050   0.54664229E-03
   0.51150   0.58633933E-03
   0.51250   0.63179032E-03
   0.51350   0.68431062E-03
   0.51450   0.74564444E-03
   0.51550   0.81815931E-03
   0.51650   0.90514671E-03
   0.51750   0.10112702E-02
   0.51850   0.11430391E-02
   0.51950   0.13072009E-02
   0.52050   0.14798131E-02
   0.52150   0.15153562E-02
   0.52250   0.16749860E-02
   0.52350   0.24530001E-02
   0.52450   0.18793773E-02
   0.52550   0.15465887E-02
   0.52650   0.13986499E-02
   0.52750   0.13253450E-02
   0.52850   0.13029801E-02
   0.52950   0.13604864E-02
   0.53050   0.28348356E-02
   0.53150   0.19547106E-02
   0.53250   0.18432132E-02
   0.53350   0.26334503E-02
   0.53450   0.19005099E-02
   0.53550   0.21041348E-02
   0.53650   0.96346531E-02
   0.53750   0.76891179E-02
   0.53850   0.70651192E-02
   0.53950   0.79967035E-02
   0.54050   0.70601660E-02
   0.54150   0.65787053E-02
   0.54250   0.63710813E-02
   0.54350   0.57977182E-02
   0.54450   0.50087124E-02
   0.54550   0.44753999E-02
   0.54650   0.40907981E-02
   0.54750   0.36299024E-02
   0.54850   0.31205828E-02
   0.54950   0.27065671E-02
   0.55050   0.24040919E-02
   0.55150   0.21479987E-02
   0.55250   0.18971786E-02
   0.55350   0.16669420E-02
   0.55450   0.14849370E-02
   0.55550   0.13565271E-02
   0.55650   0.12677904E-02
   0.55750   0.11994154E-02
   0.55850   0.11392757E-02
   0.55950   0.10875814E-02
   0.56050   0.10510014E-02
   0.56150   0.10339231E-02
   0.56250   0.10351889E-02
   0.56350   0.10495435E-02
   0.56450   0.10705586E-02
   0.56550   0.10934584E-02
   0.56650   0.11167164E-02
   0.56750   0.11415649E-02
   0.56850   0.11700112E-02
   0.56950   0.12029822E-02
   0.57050   0.12396099E-02
   0.57150   0.12776082E-02
   0.57250   0.13142442E-02
   0.57350   0.13473983E-02
   0.57450   0.13762584E-02
   0.57550   0.14013599E-02
   0.57650   0.14240247E-02
   0.57750   0.14455655E-02
   0.57850   0.14666669E-02
   0.57950   0.14871546E-02
   0.58050   0.15061450E-02
   0.58150   0.15224367E-02
   0.58250   0.15349712E-02
   0.58350   0.15431894E-02
   0.58450   0.15471727E-02
   0.58550   0.15475434E-02
   0.58650   0.15452035E-02
   0.58750   0.15410334E-02
   0.58850   0.15356650E-02
   0.58950   0.15293797E-02
   0.59050   0.15221358E-02
   0.59150   0.15136850E-02
   0.59250   0.15037286E-02
   0.59350   0.14920591E-02
   0.59450   0.14786496E-02
   0.59550   0.14636714E-02
   0.59650   0.14474485E-02
   0.59750   0.14303761E-02
   0.59850   0.14128351E-02
   0.59950   0.13951290E-02
   0.60050   0.13774547E-02
   0.60150   0.13599077E-02
   0.60250   0.13425110E-02
   0.60350   0.13252563E-02
   0.60450   0.13081409E-02
   0.60550   0.12911941E-02
   0.60650   0.12744853E-02
   0.60750   0.12581169E-02
   0.60850   0.12422078E-02
   0.60950   0.12268736E-02
   0.61050   0.12122130E-02
   0.61150   0.11983006E-02
   0.61250   0.11851875E-02
   0.61350   0.11729018E-02
   0.61450   0.11614314E-02
   0.61550   0.11506189E-02
   0.61650   0.11396678E-02
   0.61750   0.11247260E-02
   0.61850   0.10963822E-02
   0.61950   0.10649377E-02
   0.62050   0.10427665E-02
   0.62150   0.10326195E-02
   0.62250   0.10418758E-02
   0.62350   0.10642386E-02
   0.62450   0.10831297E-02
   0.62550   0.10983315E-02
   0.62650   0.11118165E-02
   0.62750   0.11249158E-02
   0.62850   0.11385866E-02
   0.62950   0.11536739E-02
   0.63050   0.11711316E-02
   0.63150   0.11923512E-02
   0.63250   0.12199859E-02
   0.63350   0.12608528E-02
   0.63450   0.13401319E-02
   0.63550   0.15946693E-02
   0.63650   0.20955943E-02
   0.63750   0.20993710E-02
   0.63850   0.21361245E-02
   0.63950   0.16693259E-02
   0.64050   0.16977823E-02
   0.64150   0.18109210E-02
   0.64250   0.19835804E-02
   0.64350   0.22379707E-02
   0.64450   0.26522665E-02
   0.64550   0.35224315E-02
   0.64650   0.46987752E-02
   0.64750   0.67633325E-02
   0.64850   0.11408438E-01
   0.64950   0.15191994E-01
   0.65050   0.17357565E-01
   0.65150   0.12206006E-01
   0.65250   0.87401336E-02
   0.65350   0.79375338E-02
   0.65450   0.87832408E-02
   0.65550   0.99847596E-02
   0.65650   0.10141047E-01
   0.65750   0.84103374E-02
   0.65850   0.69226776E-02
   0.65950   0.64781359E-02
   0.66050   0.67314645E-02
   0.66150   0.70644175E-02
   0.66250   0.68521854E-02
   0.66350   0.62663606E-02
   0.66450   0.59201568E-02
   0.66550   0.59510795E-02
   0.66650   0.61343028E-02
   0.66750   0.61611519E-02
   0.66850   0.58980430E-02
   0.66950   0.55154660E-02
   0.67050   0.52488344E-02
   0.67150   0.51749693E-02
   0.67250   0.52271262E-02
   0.67350   0.52799024E-02
   0.67450   0.52240603E-02
   0.67550   0.50322092E-02
   0.67650   0.47685634E-02
   0.67750   0.45241178E-02
   0.67850   0.43538660E-02
   0.67950   0.42652455E-02
   0.68050   0.42350842E-02
   0.68150   0.42283940E-02
   0.68250   0.42128358E-02
   0.68350   0.41693402E-02
   0.68450   0.40964088E-02
   0.68550   0.40041837E-02
   0.68650   0.38930569E-02
   0.68750   0.37136830E-02
   0.68850   0.34952383E-02
   0.68950   0.33227191E-02
   0.69050   0.31994800E-02
   0.69150   0.31133408E-02
   0.69250   0.30524086E-02
   0.69350   0.30064867E-02
   0.69450   0.29678182E-02
   0.69550   0.29318514E-02
   0.69650   0.28974679E-02
   0.69750   0.28663476E-02
   0.69850   0.28416612E-02
   0.69950   0.28266085E-02
   0.70050   0.28232532E-02
   0.70150   0.28318416E-02
   0.70250   0.28504555E-02
   0.70350   0.28742477E-02
   0.70450   0.28908821E-02
   0.70550   0.28678884E-02
   0.70650   0.28113371E-02
   0.70750   0.27673943E-02
   0.70850   0.27404148E-02
   0.70950   0.27268869E-02
   0.71050   0.27241511E-02
   0.71150   0.27303412E-02
   0.71250   0.27440439E-02
   0.71350   0.27641661E-02
   0.71450   0.27899134E-02
   0.71550   0.28208012E-02
   0.71650   0.28566476E-02
   0.71750   0.28975462E-02
   0.71850   0.29438350E-02
   0.71950   0.29960989E-02
   0.72050   0.30552635E-02
   0.72150   0.31229039E-02
   0.72250   0.32020903E-02
   0.72350   0.32999113E-02
   0.72450   0.34367775E-02
   0.72550   0.36928190E-02
   0.72650   0.43016691E-02
   0.72750   0.37126529E-02
   0.72850   0.35981138E-02
   0.72950   0.36923951E-02
   0.73050   0.38329551E-02
   0.73150   0.40224586E-02
   0.73250   0.43054116E-02
   0.73350   0.46590674E-02
   0.73450   0.50814692E-02
   0.73550   0.56968587E-02
   0.73650   0.60055405E-02
   0.73750   0.60370844E-02
   0.73850   0.62109046E-02
   0.73950   0.65418049E-02
   0.74050   0.71033854E-02
   0.74150   0.81430357E-02
   0.74250   0.10249382E-01
   0.74350   0.15217423E-01
   0.74450   0.22830663E-01
   0.74550   0.18678930E-01
   0.74650   0.20520054E-01
   0.74750   0.13354510E-01
   0.74850   0.11700380E-01
   0.74950   0.12654562E-01
   0.75050   0.14630022E-01
   0.75150   0.16202735E-01
   0.75250   0.17168706E-01
   0.75350   0.18158663E-01
   0.75450   0.17892903E-01
   0.75550   0.16871510E-01
   0.75650   0.17353470E-01
   0.75750   0.18702680E-01
   0.75850   0.18676465E-01
   0.75950   0.17620003E-01
   0.76050   0.17236479E-01
   0.76150   0.17750764E-01
   0.76250   0.18524919E-01
   0.76350   0.18639581E-01
   0.76450   0.17837541E-01
   0.76550   0.16753901E-01
   0.76650   0.15978975E-01
   0.76750   0.15679888E-01
   0.76850   0.15797371E-01
   0.76950   0.16208772E-01
   0.77050   0.16771937E-01
   0.77150   0.17314142E-01
   0.77250   0.17652087E-01
   0.77350   0.17707147E-01
   0.77450   0.17581733E-01
   0.77550   0.17439267E-01
   0.77650   0.17347993E-01
   0.77750   0.17275725E-01
   0.77850   0.17178405E-01
   0.77950   0.17053850E-01
   0.78050   0.16927993E-01
   0.78150   0.16813528E-01
   0.78250   0.16674792E-01
   0.78350   0.16546816E-01
   0.78450   0.16498433E-01
   0.78550   0.16532088E-01
   0.78650   0.16622050E-01
   0.78750   0.16728230E-01
   0.78850   0.16812192E-01
   0.78950   0.16853347E-01
   0.79050   0.16852772E-01
   0.79150   0.16824527E-01
   0.79250   0.16784536E-01
   0.79350   0.16744137E-01
   0.79450   0.16708795E-01
   0.79550   0.16679674E-01
   0.79650   0.16656172E-01
   0.79750   0.16638782E-01
   0.79850   0.16633634E-01
   0.79950   0.16667167E-01
   0.80050   0.16861660E-01
   0.80150   0.17330352E-01
   0.80250   0.16877636E-01
   0.80350   0.16621005E-01
   0.80450   0.16518261E-01
   0.80550   0.16456541E-01
   0.80650   0.16407084E-01
   0.80750   0.16361514E-01
   0.80850   0.16318288E-01
   0.80950   0.16279310E-01
   0.81050   0.16249035E-01
   0.81150   0.16234577E-01
   0.81250   0.16246766E-01
   0.81350   0.16302500E-01
   0.81450   0.16429402E-01
   0.81550   0.16674612E-01
   0.81650   0.17117361E-01
   0.81750   0.17849913E-01
   0.81850   0.18716507E-01
   0.81950   0.18916395E-01
   0.82050   0.18459931E-01
   0.82150   0.18282425E-01
   0.82250   0.18620009E-01
   0.82350   0.19444689E-01
   0.82450   0.20771435E-01
   0.82550   0.22680623E-01
   0.82650   0.25450716E-01
   0.82750   0.29462568E-01
   0.82850   0.31810351E-01
   0.82950   0.29479738E-01
   0.83050   0.27575074E-01
   0.83150   0.26870392E-01
   0.83250   0.26883323E-01
   0.83350   0.27372120E-01
   0.83450   0.28249782E-01
   0.83550   0.29466441E-01
   0.83650   0.30921590E-01
   0.83750   0.32585587E-01
   0.83850   0.35081338E-01
   0.83950   0.39874241E-01
   0.84050   0.45801137E-01
   0.84150   0.44381533E-01
   0.84250   0.43148689E-01
   0.84350   0.45419108E-01
   0.84450   0.48094720E-01
   0.84550   0.48365247E-01
   0.84650   0.46565112E-01
   0.84750   0.45049194E-01
   0.84850   0.44707503E-01
   0.84950   0.45548704E-01
   0.85050   0.47435168E-01
   0.85150   0.50078504E-01
   0.85250   0.52927203E-01
   0.85350   0.55193216E-01
   0.85450   0.56384645E-01
   0.85550   0.56817487E-01
   0.85650   0.57289362E-01
   0.85750   0.58478408E-01
   0.85850   0.60830709E-01
   0.85950   0.64760409E-01
   0.86050   0.70543461E-01
   0.86150   0.75738132E-01
   0.86250   0.73117740E-01
   0.86350   0.69384336E-01
   0.86450   0.70872948E-01
   0.86550   0.75447761E-01
   0.86650   0.81653774E-01
   0.86750   0.88793568E-01
   0.86850   0.96105814E-01
   0.86950   0.10246927E+00
   0.87050   0.10668366E+00
   0.87150   0.10818001E+00
   0.87250   0.10740875E+00
   0.87350   0.10543858E+00
   0.87450   0.10332351E+00
   0.87550   0.10186520E+00
   0.87650   0.10181623E+00
   0.87750   0.10469878E+00
   0.87850   0.97823575E-01
   0.87950   0.97939789E-01
   0.88050   0.10240848E+00
   0.88150   0.10542037E+00
   0.88250   0.10707705E+00
   0.88350   0.10755132E+00
   0.88450   0.10726121E+00
   0.88550   0.10664224E+00
   0.88650   0.10598806E+00
   0.88750   0.10544237E+00
   0.88850   0.10502055E+00
   0.88950   0.10455290E+00
   0.89050   0.10373269E+00
   0.89150   0.10305706E+00
   0.89250   0.10389800E+00
   0.89350   0.10587133E+00
   0.89450   0.10800792E+00
   0.89550   0.10999149E+00
   0.89650   0.11178884E+00
   0.89750   0.11336226E+00
   0.89850   0.11461917E+00
   0.89950   0.11568742E+00
   0.90050   0.11760860E+00
   0.90150   0.12152955E+00
   0.90250   0.12587385E+00
   0.90350   0.13039927E+00
   0.90450   0.13539536E+00
   0.90550   0.14097589E+00
   0.90650   0.14692907E+00
   0.90750   0.15278660E+00
   0.90850   0.15781897E+00
   0.90950   0.16188771E+00
   0.91050   0.16659263E+00
   0.91150   0.17337899E+00
   0.91250   0.18261865E+00
   0.91350   0.19455852E+00
   0.91450   0.20793478E+00
   0.91550   0.21554576E+00
   0.91650   0.21426432E+00
   0.91750   0.21269366E+00
   0.91850   0.21284170E+00
   0.91950   0.21319623E+00
   0.92050   0.21380956E+00
   0.92150   0.21534929E+00
   0.92250   0.21798876E+00
   0.92350   0.22156547E+00
   0.92450   0.22588582E+00
   0.92550   0.23080659E+00
   0.92650   0.23621146E+00
   0.92750   0.24197091E+00
   0.92850   0.24790742E+00
   0.92950   0.25382355E+00
   0.93050   0.26063403E+00
   0.93150   0.27269280E+00
   0.93250   0.28283566E+00
   0.93350   0.29108694E+00
   0.93450   0.29960009E+00
   0.93550   0.30869395E+00
   0.93650   0.31832245E+00
   0.93750   0.32831362E+00
   0.93850   0.33849946E+00
   0.93950   0.34884539E+00
   0.94050   0.35948452E+00
   0.94150   0.37056798E+00
   0.94250   0.38180798E+00
   0.94350   0.39184949E+00
   0.94450   0.39928788E+00
   0.94550   0.40606573E+00
   0.94650   0.41496766E+00
   0.94750   0.42592844E+00
   0.94850   0.43830037E+00
   0.94950   0.45156014E+00
   0.95050   0.46532643E+00
   0.95150   0.47935063E+00
   0.95250   0.49355629E+00
   0.95350   0.50815809E+00
   0.95450   0.52403980E+00
   0.95550   0.54382455E+00
   0.95650   0.56858099E+00
   0.95750   0.59445685E+00
   0.95850   0.62052548E+00
   0.95950   0.64693904E+00
   0.96050   0.67388493E+00
   0.96150   0.70154446E+00
   0.96250   0.73011827E+00
   0.96350   0.75985622E+00
   0.96450   0.79110426E+00
   0.96550   0.82435012E+00
   0.96650   0.86020255E+00
   0.96750   0.89921898E+00
   0.96850   0.94156587E+00
   0.96950   0.98661739E+00
   0.97050   0.10327394E+01
   0.97150   0.10777216E+01
   0.97250   0.11202391E+01
   0.97350   0.11611784E+01
   0.97450   0.12023749E+01
   0.97550   0.12440391E+01
   0.97650   0.12857531E+01
   0.97750   0.13221422E+01
   0.97850   0.13426893E+01
   0.97950   0.13479151E+01
   0.98050   0.13481944E+01
   0.98150   0.13510962E+01
   0.98250   0.13640559E+01
   0.98350   0.13939424E+01
   0.98450   0.14402357E+01
   0.98550   0.15026437E+01
   0.98650   0.15857266E+01
   0.98750   0.16832373E+01
   0.98850   0.17781234E+01
   0.98950   0.18639816E+01
   0.99050   0.19342718E+01
   0.99150   0.19898670E+01
   0.99250   0.20343778E+01
   0.99350   0.20710416E+01
   0.99450   0.21028647E+01
   0.99550   0.21319821E+01
   0.99650   0.21589565E+01
   0.99750   0.21845458E+01
   0.99850   0.22108929E+01
   0.99950   0.22437441E+01
