# Transmission, k-averaged
# Date: 2021-05-13
#   E [eV]           T [G0]
   0.00050   0.25654934E-01
   0.00150   0.28294476E-02
   0.00250   0.38333444E-02
   0.00350   0.51190681E-02
   0.00450   0.26962927E-02
   0.00550   0.19450089E-02
   0.00650   0.23809979E-02
   0.00750   0.28707355E-02
   0.00850   0.13115334E-01
   0.00950   0.53678867E-02
   0.01050   0.40165301E-01
   0.01150   0.72734240E-02
   0.01250   0.14715199E-01
   0.01350   0.34593716E-01
   0.01450   0.71035814E-02
   0.01550   0.13561580E-01
   0.01650   0.11181249E+00
   0.01750   0.90635847E-02
   0.01850   0.68263495E-02
   0.01950   0.22505460E-01
   0.02050   0.79077981E-01
   0.02150   0.89561744E-02
   0.02250   0.59341351E-02
   0.02350   0.10670814E-01
   0.02450   0.11170137E+00
   0.02550   0.25054097E-01
   0.02650   0.71275784E-02
   0.02750   0.56912103E-02
   0.02850   0.95076924E-02
   0.02950   0.53328622E-01
   0.03050   0.61444126E-01
   0.03150   0.10540645E-01
   0.03250   0.60570766E-02
   0.03350   0.64695375E-02
   0.03450   0.12784456E-01
   0.03550   0.80810413E-01
   0.03650   0.68942554E-01
   0.03750   0.13752728E-01
   0.03850   0.79397708E-02
   0.03950   0.79882331E-02
   0.04050   0.13358401E-01
   0.04150   0.47813606E-01
   0.04250   0.32914072E+00
   0.04350   0.56092516E-01
   0.04450   0.36074989E-01
   0.04550   0.57317410E-01
   0.04650   0.11306284E+00
   0.04750   0.23323405E+00
   0.04850   0.49397635E+00
   0.04950   0.75833738E+00
   0.05050   0.63532948E+00
   0.05150   0.45342326E+00
   0.05250   0.36514619E+00
   0.05350   0.34391490E+00
   0.05450   0.37329873E+00
   0.05550   0.45560959E+00
   0.05650   0.59730935E+00
   0.05750   0.76452112E+00
   0.05850   0.83862573E+00
   0.05950   0.76291156E+00
   0.06050   0.64040232E+00
   0.06150   0.55193990E+00
   0.06250   0.51229978E+00
   0.06350   0.51760989E+00
   0.06450   0.56511468E+00
   0.06550   0.65209955E+00
   0.06650   0.76261508E+00
   0.06750   0.85081911E+00
   0.06850   0.86229247E+00
   0.06950   0.79814255E+00
   0.07050   0.71053183E+00
   0.07150   0.64114583E+00
   0.07250   0.60477352E+00
   0.07350   0.60329074E+00
   0.07450   0.63549155E+00
   0.07550   0.69805455E+00
   0.07650   0.77988458E+00
   0.07750   0.85435361E+00
   0.07850   0.88503051E+00
   0.07950   0.85564232E+00
   0.08050   0.78767157E+00
   0.08150   0.71611792E+00
   0.08250   0.66375208E+00
   0.08350   0.63932532E+00
   0.08450   0.64486295E+00
   0.08550   0.67998993E+00
   0.08650   0.74116403E+00
   0.08750   0.81607026E+00
   0.08850   0.87724966E+00
   0.08950   0.88977587E+00
   0.09050   0.84109604E+00
   0.09150   0.75818461E+00
   0.09250   0.69119245E+00
   0.09350   0.66717213E+00
   0.09450   0.67627084E+00
   0.09550   0.71080148E+00
   0.09650   0.76395094E+00
   0.09750   0.82491624E+00
   0.09850   0.87764341E+00
   0.09950   0.90575027E+00
   0.10050   0.90220833E+00
   0.10150   0.87398553E+00
   0.10250   0.83603579E+00
   0.10350   0.80219334E+00
   0.10450   0.78096962E+00
   0.10550   0.77590859E+00
   0.10650   0.78706878E+00
   0.10750   0.81179619E+00
   0.10850   0.84472036E+00
   0.10950   0.87789536E+00
   0.11050   0.90235841E+00
   0.11150   0.91146052E+00
   0.11250   0.90407807E+00
   0.11350   0.88491154E+00
   0.11450   0.86162996E+00
   0.11550   0.84143627E+00
   0.11650   0.82916683E+00
   0.11750   0.82696831E+00
   0.11850   0.83464348E+00
   0.11950   0.85003960E+00
   0.12050   0.86941779E+00
   0.12150   0.88808107E+00
   0.12250   0.90149719E+00
   0.12350   0.90670788E+00
   0.12450   0.90331584E+00
   0.12550   0.89341229E+00
   0.12650   0.88052815E+00
   0.12750   0.86831808E+00
   0.12850   0.85961950E+00
   0.12950   0.85606015E+00
   0.13050   0.85804522E+00
   0.13150   0.86491138E+00
   0.13250   0.87513578E+00
   0.13350   0.88659674E+00
   0.13450   0.89691967E+00
   0.13550   0.90391421E+00
   0.13650   0.90603256E+00
   0.13750   0.90273017E+00
   0.13850   0.89463329E+00
   0.13950   0.88351458E+00
   0.14050   0.87214792E+00
   0.14150   0.86404169E+00
   0.14250   0.86276865E+00
   0.14350   0.87032682E+00
   0.14450   0.88461804E+00
   0.14550   0.89874870E+00
   0.14650   0.90566647E+00
   0.14750   0.90411812E+00
   0.14850   0.89794940E+00
   0.14950   0.89130414E+00
   0.15050   0.88629806E+00
   0.15150   0.88340598E+00
   0.15250   0.88236755E+00
   0.15350   0.88272280E+00
   0.15450   0.88401371E+00
   0.15550   0.88583332E+00
   0.15650   0.88782847E+00
   0.15750   0.88970000E+00
   0.15850   0.89121038E+00
   0.15950   0.89219582E+00
   0.16050   0.89257771E+00
   0.16150   0.89236659E+00
   0.16250   0.89165586E+00
   0.16350   0.89060402E+00
   0.16450   0.88940805E+00
   0.16550   0.88827282E+00
   0.16650   0.88738012E+00
   0.16750   0.88686347E+00
   0.16850   0.88679034E+00
   0.16950   0.88715506E+00
   0.17050   0.88788295E+00
   0.17150   0.88884610E+00
   0.17250   0.88989317E+00
   0.17350   0.89090163E+00
   0.17450   0.89189851E+00
   0.17550   0.89335710E+00
   0.17650   0.89538312E+00
   0.17750   0.89690119E+00
   0.17850   0.89790291E+00
   0.17950   0.89862061E+00
   0.18050   0.89920378E+00
   0.18150   0.89973986E+00
   0.18250   0.90027565E+00
   0.18350   0.90082979E+00
   0.18450   0.90140086E+00
   0.18550   0.90197361E+00
   0.18650   0.90252453E+00
   0.18750   0.90302706E+00
   0.18850   0.90345585E+00
   0.18950   0.90379065E+00
   0.19050   0.90401882E+00
   0.19150   0.90413696E+00
   0.19250   0.90415120E+00
   0.19350   0.90407646E+00
   0.19450   0.90393472E+00
   0.19550   0.90375215E+00
   0.19650   0.90355676E+00
   0.19750   0.90337503E+00
   0.19850   0.90322912E+00
   0.19950   0.90313482E+00
   0.20050   0.90310001E+00
   0.20150   0.90312392E+00
   0.20250   0.90319735E+00
   0.20350   0.90330380E+00
   0.20450   0.90342152E+00
   0.20550   0.90352547E+00
   0.20650   0.90359044E+00
   0.20750   0.90359294E+00
   0.20850   0.90351349E+00
   0.20950   0.90333611E+00
   0.21050   0.90304351E+00
   0.21150   0.90259653E+00
   0.21250   0.90184665E+00
   0.21350   0.90015119E+00
   0.21450   0.89753979E+00
   0.21550   0.89915276E+00
   0.21650   0.90002614E+00
   0.21750   0.90012014E+00
   0.21850   0.89992005E+00
   0.21950   0.89965403E+00
   0.22050   0.89936107E+00
   0.22150   0.89902818E+00
   0.22250   0.89864224E+00
   0.22350   0.89819443E+00
   0.22450   0.89768016E+00
   0.22550   0.89709902E+00
   0.22650   0.89645380E+00
   0.22750   0.89574987E+00
   0.22850   0.89499360E+00
   0.22950   0.89419127E+00
   0.23050   0.89334702E+00
   0.23150   0.89246118E+00
   0.23250   0.89153028E+00
   0.23350   0.89056361E+00
   0.23450   0.88973224E+00
   0.23550   0.88951719E+00
   0.23650   0.88964802E+00
   0.23750   0.88978612E+00
   0.23850   0.88986307E+00
   0.23950   0.88986850E+00
   0.24050   0.88980484E+00
   0.24150   0.88967901E+00
   0.24250   0.88950056E+00
   0.24350   0.88928032E+00
   0.24450   0.88902980E+00
   0.24550   0.88876027E+00
   0.24650   0.88848180E+00
   0.24750   0.88820302E+00
   0.24850   0.88793027E+00
   0.24950   0.88766772E+00
   0.25050   0.88741720E+00
   0.25150   0.88717842E+00
   0.25250   0.88694930E+00
   0.25350   0.88672650E+00
   0.25450   0.88650590E+00
   0.25550   0.88628304E+00
   0.25650   0.88605392E+00
   0.25750   0.88581514E+00
   0.25850   0.88556433E+00
   0.25950   0.88530040E+00
   0.26050   0.88502347E+00
   0.26150   0.88473493E+00
   0.26250   0.88443714E+00
   0.26350   0.88413334E+00
   0.26450   0.88382709E+00
   0.26550   0.88352197E+00
   0.26650   0.88322151E+00
   0.26750   0.88292855E+00
   0.26850   0.88264513E+00
   0.26950   0.88237250E+00
   0.27050   0.88211089E+00
   0.27150   0.88185954E+00
   0.27250   0.88161701E+00
   0.27350   0.88138121E+00
   0.27450   0.88114959E+00
   0.27550   0.88091969E+00
   0.27650   0.88068908E+00
   0.27750   0.88045567E+00
   0.27850   0.88021821E+00
   0.27950   0.87997586E+00
   0.28050   0.87972873E+00
   0.28150   0.87947768E+00
   0.28250   0.87922412E+00
   0.28350   0.87897009E+00
   0.28450   0.87871790E+00
   0.28550   0.87846982E+00
   0.28650   0.87822813E+00
   0.28750   0.87799466E+00
   0.28850   0.87777066E+00
   0.28950   0.87755686E+00
   0.29050   0.87735319E+00
   0.29150   0.87715882E+00
   0.29250   0.87697268E+00
   0.29350   0.87679327E+00
   0.29450   0.87661952E+00
   0.29550   0.87645197E+00
   0.29650   0.87629557E+00
   0.29750   0.87616938E+00
   0.29850   0.87614256E+00
   0.29950   0.87630492E+00
   0.30050   0.87647122E+00
   0.30150   0.87655425E+00
   0.30250   0.87657923E+00
   0.30350   0.87656718E+00
   0.30450   0.87653065E+00
   0.30550   0.87647736E+00
   0.30650   0.87641203E+00
   0.30750   0.87633789E+00
   0.30850   0.87625694E+00
   0.30950   0.87617040E+00
   0.31050   0.87607914E+00
   0.31150   0.87598360E+00
   0.31250   0.87588388E+00
   0.31350   0.87578005E+00
   0.31450   0.87567204E+00
   0.31550   0.87555969E+00
   0.31650   0.87544274E+00
   0.31750   0.87532109E+00
   0.31850   0.87519431E+00
   0.31950   0.87506217E+00
   0.32050   0.87492430E+00
   0.32150   0.87478018E+00
   0.32250   0.87462908E+00
   0.32350   0.87447029E+00
   0.32450   0.87430251E+00
   0.32550   0.87412429E+00
   0.32650   0.87393349E+00
   0.32750   0.87372744E+00
   0.32850   0.87350237E+00
   0.32950   0.87325346E+00
   0.33050   0.87297410E+00
   0.33150   0.87265527E+00
   0.33250   0.87228447E+00
   0.33350   0.87184411E+00
   0.33450   0.87130833E+00
   0.33550   0.87063837E+00
   0.33650   0.86977351E+00
   0.33750   0.86861390E+00
   0.33850   0.86698622E+00
   0.33950   0.86456716E+00
   0.34050   0.86069781E+00
   0.34150   0.85387474E+00
   0.34250   0.84013438E+00
   0.34350   0.80727583E+00
   0.34450   0.72325110E+00
   0.34550   0.68260008E+00
   0.34650   0.78755337E+00
   0.34750   0.83597809E+00
   0.34850   0.85378832E+00
   0.34950   0.86153078E+00
   0.35050   0.86540657E+00
   0.35150   0.86754006E+00
   0.35250   0.86878526E+00
   0.35350   0.86953205E+00
   0.35450   0.86997598E+00
   0.35550   0.87022203E+00
   0.35650   0.87032872E+00
   0.35750   0.87032771E+00
   0.35850   0.87023222E+00
   0.35950   0.87003732E+00
   0.36050   0.86970717E+00
   0.36150   0.86912107E+00
   0.36250   0.86790699E+00
   0.36350   0.86595941E+00
   0.36450   0.86414784E+00
   0.36550   0.86263406E+00
   0.36650   0.86132711E+00
   0.36750   0.86016119E+00
   0.36850   0.85909557E+00
   0.36950   0.85810405E+00
   0.37050   0.85716867E+00
   0.37150   0.85627645E+00
   0.37250   0.85541761E+00
   0.37350   0.85458416E+00
   0.37450   0.85376960E+00
   0.37550   0.85296810E+00
   0.37650   0.85217422E+00
   0.37750   0.85138237E+00
   0.37850   0.85058647E+00
   0.37950   0.84977925E+00
   0.38050   0.84895200E+00
   0.38150   0.84810722E+00
   0.38250   0.84732676E+00
   0.38350   0.84665209E+00
   0.38450   0.84600580E+00
   0.38550   0.84536034E+00
   0.38650   0.84470916E+00
   0.38750   0.84404969E+00
   0.38850   0.84338027E+00
   0.38950   0.84269923E+00
   0.39050   0.84200495E+00
   0.39150   0.84129572E+00
   0.39250   0.84056973E+00
   0.39350   0.83982521E+00
   0.39450   0.83906025E+00
   0.39550   0.83827311E+00
   0.39650   0.83746171E+00
   0.39750   0.83662403E+00
   0.39850   0.83575791E+00
   0.39950   0.83486086E+00
   0.40050   0.83393019E+00
   0.40150   0.83296281E+00
   0.40250   0.83195531E+00
   0.40350   0.83090365E+00
   0.40450   0.82980329E+00
   0.40550   0.82864898E+00
   0.40650   0.82743484E+00
   0.40750   0.82615405E+00
   0.40850   0.82479888E+00
   0.40950   0.82336074E+00
   0.41050   0.82182980E+00
   0.41150   0.82019562E+00
   0.41250   0.81844801E+00
   0.41350   0.81658190E+00
   0.41450   0.81459504E+00
   0.41550   0.81242192E+00
   0.41650   0.80999994E+00
   0.41750   0.80729795E+00
   0.41850   0.80427241E+00
   0.41950   0.80086201E+00
   0.42050   0.79698426E+00
   0.42150   0.79252911E+00
   0.42250   0.78734809E+00
   0.42350   0.78123850E+00
   0.42450   0.77391893E+00
   0.42550   0.76499057E+00
   0.42650   0.75387692E+00
   0.42750   0.73972410E+00
   0.42850   0.72123677E+00
   0.42950   0.69640005E+00
   0.43050   0.66200918E+00
   0.43150   0.61290044E+00
   0.43250   0.54088765E+00
   0.43350   0.43433377E+00
   0.43450   0.28381941E+00
   0.43550   0.11146042E+00
   0.43650   0.98424330E-02
   0.43750   0.22267074E-03
   0.43850   0.27236741E-01
   0.43950   0.13611124E+00
   0.44050   0.27049115E+00
   0.44150   0.38159055E+00
   0.44250   0.46296719E+00
   0.44350   0.52121300E+00
   0.44450   0.56343836E+00
   0.44550   0.59492177E+00
   0.44650   0.61930436E+00
   0.44750   0.63912129E+00
   0.44850   0.65624094E+00
   0.44950   0.67218792E+00
   0.45050   0.68837100E+00
   0.45150   0.70596796E+00
   0.45250   0.72258598E+00
   0.45350   0.69888508E+00
   0.45450   0.57476449E+00
   0.45550   0.58635283E+00
   0.45650   0.62333477E+00
   0.45750   0.64920121E+00
   0.45850   0.66833180E+00
   0.45950   0.68394202E+00
   0.46050   0.69760823E+00
   0.46150   0.71011162E+00
   0.46250   0.72184908E+00
   0.46350   0.73302084E+00
   0.46450   0.74372190E+00
   0.46550   0.75399047E+00
   0.46650   0.76383442E+00
   0.46750   0.77324772E+00
   0.46850   0.78221917E+00
   0.46950   0.79073846E+00
   0.47050   0.79879850E+00
   0.47150   0.80639738E+00
   0.47250   0.81353819E+00
   0.47350   0.82022923E+00
   0.47450   0.82648307E+00
   0.47550   0.83231604E+00
   0.47650   0.83774734E+00
   0.47750   0.84279853E+00
   0.47850   0.84749275E+00
   0.47950   0.85185432E+00
   0.48050   0.85590845E+00
   0.48150   0.85968113E+00
   0.48250   0.86319894E+00
   0.48350   0.86648941E+00
   0.48450   0.86958134E+00
   0.48550   0.87250543E+00
   0.48650   0.87529540E+00
   0.48750   0.87798977E+00
   0.48850   0.88063395E+00
   0.48950   0.88328499E+00
   0.49050   0.88601726E+00
   0.49150   0.88893318E+00
   0.49250   0.89217770E+00
   0.49350   0.89594698E+00
   0.49450   0.90037811E+00
   0.49550   0.90401816E+00
   0.49650   0.87151861E+00
   0.49750   0.57296956E+00
   0.49850   0.80828929E+00
   0.49950   0.84951633E+00
   0.50050   0.85963494E+00
   0.50150   0.84581727E+00
   0.50250   0.82021278E+00
   0.50350   0.81129229E+00
   0.50450   0.80968881E+00
   0.50550   0.79624712E+00
   0.50650   0.77853632E+00
   0.50750   0.76312357E+00
   0.50850   0.74769717E+00
   0.50950   0.72960860E+00
   0.51050   0.70775563E+00
   0.51150   0.68363762E+00
   0.51250   0.66471577E+00
   0.51350   0.66827238E+00
   0.51450   0.70890796E+00
   0.51550   0.76691014E+00
   0.51650   0.80545712E+00
   0.51750   0.81023800E+00
   0.51850   0.77988356E+00
   0.51950   0.71525609E+00
   0.52050   0.63724822E+00
   0.52150   0.61114752E+00
   0.52250   0.65930992E+00
   0.52350   0.73665255E+00
   0.52450   0.78143579E+00
   0.52550   0.80668497E+00
   0.52650   0.74180722E+00
   0.52750   0.61434269E+00
   0.52850   0.39193627E+00
   0.52950   0.65202844E+00
   0.53050   0.87886107E+00
   0.53150   0.11187572E+01
   0.53250   0.13146129E+01
   0.53350   0.15078168E+01
   0.53450   0.16228303E+01
   0.53550   0.17500126E+01
   0.53650   0.18301904E+01
   0.53750   0.18906019E+01
   0.53850   0.19663337E+01
   0.53950   0.20240352E+01
   0.54050   0.20557125E+01
   0.54150   0.20867848E+01
   0.54250   0.21229188E+01
   0.54350   0.21521347E+01
   0.54450   0.21703939E+01
   0.54550   0.21851532E+01
   0.54650   0.22019041E+01
   0.54750   0.22183139E+01
   0.54850   0.22295761E+01
   0.54950   0.22346952E+01
   0.55050   0.22361505E+01
   0.55150   0.22349446E+01
   0.55250   0.22266948E+01
   0.55350   0.21992857E+01
   0.55450   0.21255872E+01
   0.55550   0.19560628E+01
   0.55650   0.18661859E+01
   0.55750   0.21028674E+01
   0.55850   0.22465858E+01
   0.55950   0.23083208E+01
   0.56050   0.23399258E+01
   0.56150   0.23583312E+01
   0.56250   0.23699129E+01
   0.56350   0.23782632E+01
   0.56450   0.23857927E+01
   0.56550   0.23938591E+01
   0.56650   0.24028528E+01
   0.56750   0.24125187E+01
   0.56850   0.24223857E+01
   0.56950   0.24320977E+01
   0.57050   0.24415283E+01
   0.57150   0.24507134E+01
   0.57250   0.24597204E+01
   0.57350   0.24685745E+01
   0.57450   0.24772749E+01
   0.57550   0.24858596E+01
   0.57650   0.24944544E+01
   0.57750   0.25032566E+01
   0.57850   0.25124571E+01
   0.57950   0.25221419E+01
   0.58050   0.25322223E+01
   0.58150   0.25424342E+01
   0.58250   0.25524154E+01
   0.58350   0.25618310E+01
   0.58450   0.25704961E+01
   0.58550   0.25784440E+01
   0.58650   0.25859110E+01
   0.58750   0.25932438E+01
   0.58850   0.26007731E+01
   0.58950   0.26086993E+01
   0.59050   0.26170304E+01
   0.59150   0.26255834E+01
   0.59250   0.26340473E+01
   0.59350   0.26420820E+01
   0.59450   0.26494200E+01
   0.59550   0.26559415E+01
   0.59650   0.26616948E+01
   0.59750   0.26668677E+01
   0.59850   0.26717157E+01
   0.59950   0.26764827E+01
   0.60050   0.26813354E+01
   0.60150   0.26863291E+01
   0.60250   0.26914086E+01
   0.60350   0.26964407E+01
   0.60450   0.27012610E+01
   0.60550   0.27057235E+01
   0.60650   0.27097363E+01
   0.60750   0.27132761E+01
   0.60850   0.27163799E+01
   0.60950   0.27191198E+01
   0.61050   0.27215726E+01
   0.61150   0.27237945E+01
   0.61250   0.27258062E+01
   0.61350   0.27275975E+01
   0.61450   0.27291372E+01
   0.61550   0.27303936E+01
   0.61650   0.27313566E+01
   0.61750   0.27321081E+01
   0.61850   0.27330158E+01
   0.61950   0.27339587E+01
   0.62050   0.27341235E+01
   0.62150   0.27320452E+01
   0.62250   0.27242303E+01
   0.62350   0.27126734E+01
   0.62450   0.27036736E+01
   0.62550   0.26972127E+01
   0.62650   0.26924634E+01
   0.62750   0.26889482E+01
   0.62850   0.26864288E+01
   0.62950   0.26847937E+01
   0.63050   0.26839852E+01
   0.63150   0.26839538E+01
   0.63250   0.26846333E+01
   0.63350   0.26859300E+01
   0.63450   0.26877248E+01
   0.63550   0.26898823E+01
   0.63650   0.26922646E+01
   0.63750   0.26947451E+01
   0.63850   0.26972215E+01
   0.63950   0.26996214E+01
   0.64050   0.27019076E+01
   0.64150   0.27040734E+01
   0.64250   0.27061391E+01
   0.64350   0.27081430E+01
   0.64450   0.27101338E+01
   0.64550   0.27121623E+01
   0.64650   0.27142730E+01
   0.64750   0.27165003E+01
   0.64850   0.27188613E+01
   0.64950   0.27213547E+01
   0.65050   0.27239580E+01
   0.65150   0.27266278E+01
   0.65250   0.27293024E+01
   0.65350   0.27319069E+01
   0.65450   0.27343602E+01
   0.65550   0.27365849E+01
   0.65650   0.27385178E+01
   0.65750   0.27401199E+01
   0.65850   0.27413850E+01
   0.65950   0.27423427E+01
   0.66050   0.27430573E+01
   0.66150   0.27436206E+01
   0.66250   0.27441399E+01
   0.66350   0.27447231E+01
   0.66450   0.27454622E+01
   0.66550   0.27464187E+01
   0.66650   0.27476132E+01
   0.66750   0.27490189E+01
   0.66850   0.27505648E+01
   0.66950   0.27521420E+01
   0.67050   0.27536201E+01
   0.67150   0.27548649E+01
   0.67250   0.27557604E+01
   0.67350   0.27562275E+01
   0.67450   0.27562387E+01
   0.67550   0.27558246E+01
   0.67650   0.27550712E+01
   0.67750   0.27541082E+01
   0.67850   0.27530904E+01
   0.67950   0.27521746E+01
   0.68050   0.27514963E+01
   0.68150   0.27511487E+01
   0.68250   0.27511678E+01
   0.68350   0.27515213E+01
   0.68450   0.27521088E+01
   0.68550   0.27527666E+01
   0.68650   0.27532871E+01
   0.68750   0.27534196E+01
   0.68850   0.27528594E+01
   0.68950   0.27517831E+01
   0.69050   0.27505381E+01
   0.69150   0.27493484E+01
   0.69250   0.27483227E+01
   0.69350   0.27474749E+01
   0.69450   0.27467442E+01
   0.69550   0.27460153E+01
   0.69650   0.27451384E+01
   0.69750   0.27439473E+01
   0.69850   0.27422705E+01
   0.69950   0.27399242E+01
   0.70050   0.27366652E+01
   0.70150   0.27320094E+01
   0.70250   0.27244265E+01
   0.70350   0.27056270E+01
   0.70450   0.25014801E+01
   0.70550   0.25341923E+01
   0.70650   0.26799526E+01
   0.70750   0.26912940E+01
   0.70850   0.26889927E+01
   0.70950   0.26811376E+01
   0.71050   0.26681297E+01
   0.71150   0.26476254E+01
   0.71250   0.26127241E+01
   0.71350   0.25411363E+01
   0.71450   0.23371077E+01
   0.71550   0.19124308E+01
   0.71650   0.23803730E+01
   0.71750   0.25156519E+01
   0.71850   0.25082195E+01
   0.71950   0.24759796E+01
   0.72050   0.23590918E+01
   0.72150   0.21963456E+01
   0.72250   0.20608172E+01
   0.72350   0.22725418E+01
   0.72450   0.20720983E+01
   0.72550   0.16195126E+01
   0.72650   0.18438176E+01
   0.72750   0.17412174E+01
   0.72850   0.17802774E+01
   0.72950   0.18541472E+01
   0.73050   0.19076394E+01
   0.73150   0.19344729E+01
   0.73250   0.19365367E+01
   0.73350   0.19205518E+01
   0.73450   0.18980185E+01
   0.73550   0.18777218E+01
   0.73650   0.18643414E+01
   0.73750   0.18598826E+01
   0.73850   0.18649060E+01
   0.73950   0.18789054E+01
   0.74050   0.19006618E+01
   0.74150   0.19287854E+01
   0.74250   0.19621013E+01
   0.74350   0.19996217E+01
   0.74450   0.20402780E+01
   0.74550   0.20827982E+01
   0.74650   0.21258583E+01
   0.74750   0.21682987E+01
   0.74850   0.22092223E+01
   0.74950   0.22479808E+01
   0.75050   0.22841556E+01
   0.75150   0.23175640E+01
   0.75250   0.23482575E+01
   0.75350   0.23764753E+01
   0.75450   0.24025578E+01
   0.75550   0.24268515E+01
   0.75650   0.24496355E+01
   0.75750   0.24710877E+01
   0.75850   0.24912903E+01
   0.75950   0.25102754E+01
   0.76050   0.25280848E+01
   0.76150   0.25448308E+01
   0.76250   0.25607314E+01
   0.76350   0.25761051E+01
   0.76450   0.25913348E+01
   0.76550   0.26068084E+01
   0.76650   0.26228592E+01
   0.76750   0.26397212E+01
   0.76850   0.26575060E+01
   0.76950   0.26762083E+01
   0.77050   0.26957254E+01
   0.77150   0.27158911E+01
   0.77250   0.27365112E+01
   0.77350   0.27573969E+01
   0.77450   0.27783897E+01
   0.77550   0.27993765E+01
   0.77650   0.28202944E+01
   0.77750   0.28411252E+01
   0.77850   0.28618855E+01
   0.77950   0.28826120E+01
   0.78050   0.29033606E+01
   0.78150   0.29242527E+01
   0.78250   0.29454565E+01
   0.78350   0.29665093E+01
   0.78450   0.29870300E+01
   0.78550   0.30069587E+01
   0.78650   0.30262618E+01
   0.78750   0.30449207E+01
   0.78850   0.30629473E+01
   0.78950   0.30803857E+01
   0.79050   0.30973051E+01
   0.79150   0.31137831E+01
   0.79250   0.31298890E+01
   0.79350   0.31456656E+01
   0.79450   0.31611209E+01
   0.79550   0.31762249E+01
   0.79650   0.31909163E+01
   0.79750   0.32051139E+01
   0.79850   0.32187328E+01
   0.79950   0.32317004E+01
   0.80050   0.32439685E+01
   0.80150   0.32555187E+01
   0.80250   0.32663651E+01
   0.80350   0.32765472E+01
   0.80450   0.32861223E+01
   0.80550   0.32951531E+01
   0.80650   0.33036997E+01
   0.80750   0.33118095E+01
   0.80850   0.33195157E+01
   0.80950   0.33268344E+01
   0.81050   0.33337688E+01
   0.81150   0.33403125E+01
   0.81250   0.33464537E+01
   0.81350   0.33521767E+01
   0.81450   0.33574615E+01
   0.81550   0.33622808E+01
   0.81650   0.33665974E+01
   0.81750   0.33703606E+01
   0.81850   0.33735087E+01
   0.81950   0.33759694E+01
   0.82050   0.33776581E+01
   0.82150   0.33784547E+01
   0.82250   0.33781242E+01
   0.82350   0.33760586E+01
   0.82450   0.33704007E+01
   0.82550   0.33552635E+01
   0.82650   0.33265755E+01
   0.82750   0.33009045E+01
   0.82850   0.32829762E+01
   0.82950   0.32705500E+01
   0.83050   0.32618105E+01
   0.83150   0.32554691E+01
   0.83250   0.32505553E+01
   0.83350   0.32463484E+01
   0.83450   0.32423759E+01
   0.83550   0.32384253E+01
   0.83650   0.32345312E+01
   0.83750   0.32309077E+01
   0.83850   0.32278106E+01
   0.83950   0.32253056E+01
   0.84050   0.32229140E+01
   0.84150   0.32190611E+01
   0.84250   0.32100329E+01
   0.84350   0.31860232E+01
   0.84450   0.30955632E+01
   0.84550   0.27233653E+01
   0.84650   0.28600180E+01
   0.84750   0.30517192E+01
   0.84850   0.30755055E+01
   0.84950   0.30309045E+01
   0.85050   0.29213109E+01
   0.85150   0.26879272E+01
   0.85250   0.27533302E+01
   0.85350   0.29990127E+01
   0.85450   0.30642526E+01
   0.85550   0.29743743E+01
   0.85650   0.26987069E+01
   0.85750   0.30665283E+01
   0.85850   0.30059593E+01
   0.85950   0.32274678E+01
   0.86050   0.33503873E+01
   0.86150   0.30455251E+01
   0.86250   0.30099261E+01
   0.86350   0.31231561E+01
   0.86450   0.31795073E+01
   0.86550   0.32610393E+01
   0.86650   0.32287581E+01
   0.86750   0.31769168E+01
   0.86850   0.31467948E+01
   0.86950   0.31161835E+01
   0.87050   0.30675337E+01
   0.87150   0.30098982E+01
   0.87250   0.29652100E+01
   0.87350   0.29459906E+01
   0.87450   0.29494598E+01
   0.87550   0.29668050E+01
   0.87650   0.29916229E+01
   0.87750   0.30210149E+01
   0.87850   0.30528059E+01
   0.87950   0.30835755E+01
   0.88050   0.31095617E+01
   0.88150   0.31286883E+01
   0.88250   0.31408136E+01
   0.88350   0.31461680E+01
   0.88450   0.31444261E+01
   0.88550   0.31356697E+01
   0.88650   0.31218977E+01
   0.88750   0.31070886E+01
   0.88850   0.30955441E+01
   0.88950   0.30900407E+01
   0.89050   0.30911427E+01
   0.89150   0.30974889E+01
   0.89250   0.31059499E+01
   0.89350   0.31113944E+01
   0.89450   0.31075857E+01
   0.89550   0.30905261E+01
   0.89650   0.30618777E+01
   0.89750   0.30283105E+01
   0.89850   0.29971828E+01
   0.89950   0.29721496E+01
   0.90050   0.29490826E+01
   0.90150   0.29224596E+01
   0.90250   0.29030426E+01
   0.90350   0.28922942E+01
   0.90450   0.28861299E+01
   0.90550   0.28812926E+01
   0.90650   0.28767133E+01
   0.90750   0.28726387E+01
   0.90850   0.28694816E+01
   0.90950   0.28670783E+01
   0.91050   0.28643734E+01
   0.91150   0.28591659E+01
   0.91250   0.28478937E+01
   0.91350   0.28260510E+01
   0.91450   0.27897146E+01
   0.91550   0.27371497E+01
   0.91650   0.26685104E+01
   0.91750   0.25839322E+01
   0.91850   0.24832890E+01
   0.91950   0.23691404E+01
   0.92050   0.22493529E+01
   0.92150   0.21353557E+01
   0.92250   0.20374541E+01
   0.92350   0.19616027E+01
   0.92450   0.19091833E+01
   0.92550   0.18784351E+01
   0.92650   0.18660645E+01
   0.92750   0.18684106E+01
   0.92850   0.18820174E+01
   0.92950   0.19036419E+01
   0.93050   0.19299655E+01
   0.93150   0.19575264E+01
   0.93250   0.19832906E+01
   0.93350   0.20056729E+01
   0.93450   0.20252402E+01
   0.93550   0.20444303E+01
   0.93650   0.20660310E+01
   0.93750   0.20901451E+01
   0.93850   0.21099741E+01
   0.93950   0.21100082E+01
   0.94050   0.20732698E+01
   0.94150   0.19964708E+01
   0.94250   0.19030970E+01
   0.94350   0.19121583E+01
   0.94450   0.24103780E+01
   0.94550   0.20572374E+01
   0.94650   0.20922134E+01
   0.94750   0.16980050E+01
   0.94850   0.14891814E+01
   0.94950   0.14483488E+01
   0.95050   0.15217232E+01
   0.95150   0.17180806E+01
   0.95250   0.20013814E+01
   0.95350   0.21187980E+01
   0.95450   0.20867546E+01
   0.95550   0.20635591E+01
   0.95650   0.20464256E+01
   0.95750   0.19374440E+01
   0.95850   0.16940305E+01
   0.95950   0.14478595E+01
   0.96050   0.12691159E+01
   0.96150   0.11449929E+01
   0.96250   0.10673343E+01
   0.96350   0.10485671E+01
   0.96450   0.11201106E+01
   0.96550   0.12185441E+01
   0.96650   0.10749968E+01
   0.96750   0.96682847E+00
   0.96850   0.88174814E+00
   0.96950   0.80482256E+00
   0.97050   0.73820627E+00
   0.97150   0.68181163E+00
   0.97250   0.64117050E+00
   0.97350   0.62611586E+00
   0.97450   0.64166063E+00
   0.97550   0.67719889E+00
   0.97650   0.70739216E+00
   0.97750   0.72322470E+00
   0.97850   0.72778440E+00
   0.97950   0.72373438E+00
   0.98050   0.71286142E+00
   0.98150   0.69530296E+00
   0.98250   0.66980642E+00
   0.98350   0.63553125E+00
   0.98450   0.59481770E+00
   0.98550   0.55415624E+00
   0.98650   0.51889032E+00
   0.98750   0.48841241E+00
   0.98850   0.45938179E+00
   0.98950   0.43153164E+00
   0.99050   0.40997505E+00
   0.99150   0.39204386E+00
   0.99250   0.37292951E+00
   0.99350   0.35518709E+00
   0.99450   0.34332240E+00
   0.99550   0.33821756E+00
   0.99650   0.34035572E+00
   0.99750   0.35139298E+00
   0.99850   0.37133524E+00
   0.99950   0.38887927E+00
