# Transmission, k-averaged
# Date: 2021-05-13
#   E [eV]           T [G0]
   0.00050   0.70446229E+00
   0.00150   0.32770377E+00
   0.00250   0.15221637E+00
   0.00350   0.69087282E-01
   0.00450   0.39732717E-01
   0.00550   0.16972810E-01
   0.00650   0.12253787E-01
   0.00750   0.14618219E-01
   0.00850   0.63975737E-02
   0.00950   0.11173185E-01
   0.01050   0.73780986E-02
   0.01150   0.58498783E-02
   0.01250   0.20614224E-01
   0.01350   0.62424666E-02
   0.01450   0.10594111E-01
   0.01550   0.11949608E-01
   0.01650   0.96236514E-02
   0.01750   0.11107282E-01
   0.01850   0.11032976E-01
   0.01950   0.11569460E-01
   0.02050   0.11653376E-01
   0.02150   0.10434987E-01
   0.02250   0.12296134E-01
   0.02350   0.16560610E-01
   0.02450   0.11787315E-01
   0.02550   0.80056861E-02
   0.02650   0.93220156E-02
   0.02750   0.20945244E-01
   0.02850   0.26000926E-01
   0.02950   0.93238428E-02
   0.03050   0.58581745E-02
   0.03150   0.68526873E-02
   0.03250   0.16746506E-01
   0.03350   0.64791806E-01
   0.03450   0.14284229E-01
   0.03550   0.58612442E-02
   0.03650   0.46599135E-02
   0.03750   0.63449405E-02
   0.03850   0.17740197E-01
   0.03950   0.94433360E-01
   0.04050   0.14896644E-01
   0.04150   0.56537152E-02
   0.04250   0.41706180E-02
   0.04350   0.51050666E-02
   0.04450   0.11562217E-01
   0.04550   0.38093612E-01
   0.04650   0.20507270E-01
   0.04750   0.95929196E-02
   0.04850   0.65962309E-02
   0.04950   0.59565008E-02
   0.05050   0.66208350E-02
   0.05150   0.86411145E-02
   0.05250   0.12057313E-01
   0.05350   0.14525630E-01
   0.05450   0.12824426E-01
   0.05550   0.97077116E-02
   0.05650   0.76877843E-02
   0.05750   0.68398779E-02
   0.05850   0.68897549E-02
   0.05950   0.77395537E-02
   0.06050   0.93561010E-02
   0.06150   0.11355448E-01
   0.06250   0.12592347E-01
   0.06350   0.12202825E-01
   0.06450   0.10924106E-01
   0.06550   0.98431520E-02
   0.06650   0.94071552E-02
   0.06750   0.97120050E-02
   0.06850   0.10806272E-01
   0.06950   0.12728937E-01
   0.07050   0.15324892E-01
   0.07150   0.17935626E-01
   0.07250   0.19541550E-01
   0.07350   0.19753706E-01
   0.07450   0.19227974E-01
   0.07550   0.18850068E-01
   0.07650   0.19174393E-01
   0.07750   0.20489771E-01
   0.07850   0.22977527E-01
   0.07950   0.26704548E-01
   0.08050   0.31398654E-01
   0.08150   0.36132708E-01
   0.08250   0.39490800E-01
   0.08350   0.40638279E-01
   0.08450   0.40108558E-01
   0.08550   0.39169949E-01
   0.08650   0.38890943E-01
   0.08750   0.39905135E-01
   0.08850   0.42564385E-01
   0.08950   0.47017671E-01
   0.09050   0.52986491E-01
   0.09150   0.59060853E-01
   0.09250   0.61983179E-01
   0.09350   0.60535721E-01
   0.09450   0.57149824E-01
   0.09550   0.53744633E-01
   0.09650   0.51214322E-01
   0.09750   0.49792521E-01
   0.09850   0.49351413E-01
   0.09950   0.49525753E-01
   0.10050   0.49737599E-01
   0.10150   0.49268615E-01
   0.10250   0.47522452E-01
   0.10350   0.44423014E-01
   0.10450   0.40592123E-01
   0.10550   0.37078649E-01
   0.10650   0.34962308E-01
   0.10750   0.35276011E-01
   0.10850   0.39321437E-01
   0.10950   0.49219053E-01
   0.11050   0.68400636E-01
   0.11150   0.10137267E+00
   0.11250   0.15212484E+00
   0.11350   0.22232255E+00
   0.11450   0.31115922E+00
   0.11550   0.41556442E+00
   0.11650   0.52911574E+00
   0.11750   0.64180058E+00
   0.11850   0.74289978E+00
   0.11950   0.82523799E+00
   0.12050   0.88709599E+00
   0.12150   0.93085468E+00
   0.12250   0.96046126E+00
   0.12350   0.97965384E+00
   0.12450   0.99132371E+00
   0.12550   0.99755490E+00
   0.12650   0.99986565E+00
   0.12750   0.99941367E+00
   0.12850   0.99710763E+00
   0.12950   0.99364966E+00
   0.13050   0.98955053E+00
   0.13150   0.98514670E+00
   0.13250   0.98063058E+00
   0.13350   0.97609293E+00
   0.13450   0.97156829E+00
   0.13550   0.96707511E+00
   0.13650   0.96264315E+00
   0.13750   0.95832545E+00
   0.13850   0.95419520E+00
   0.13950   0.95033342E+00
   0.14050   0.94681090E+00
   0.14150   0.94367236E+00
   0.14250   0.94092536E+00
   0.14350   0.93853742E+00
   0.14450   0.93644124E+00
   0.14550   0.93454665E+00
   0.14650   0.93275726E+00
   0.14750   0.93098688E+00
   0.14850   0.92917496E+00
   0.14950   0.92729533E+00
   0.15050   0.92535895E+00
   0.15150   0.92340952E+00
   0.15250   0.92151266E+00
   0.15350   0.91974241E+00
   0.15450   0.91816580E+00
   0.15550   0.91683030E+00
   0.15650   0.91575420E+00
   0.15750   0.91492271E+00
   0.15850   0.91428965E+00
   0.15950   0.91378438E+00
   0.16050   0.91332281E+00
   0.16150   0.91282052E+00
   0.16250   0.91220647E+00
   0.16350   0.91143417E+00
   0.16450   0.91048920E+00
   0.16550   0.90939105E+00
   0.16650   0.90818989E+00
   0.16750   0.90695781E+00
   0.16850   0.90577680E+00
   0.16950   0.90472502E+00
   0.17050   0.90386307E+00
   0.17150   0.90322316E+00
   0.17250   0.90280104E+00
   0.17350   0.90255195E+00
   0.17450   0.90238494E+00
   0.17550   0.90213335E+00
   0.17650   0.90160567E+00
   0.17750   0.90087110E+00
   0.17850   0.90001756E+00
   0.17950   0.89908189E+00
   0.18050   0.89809197E+00
   0.18150   0.89707369E+00
   0.18250   0.89605087E+00
   0.18350   0.89504355E+00
   0.18450   0.89406639E+00
   0.18550   0.89312738E+00
   0.18650   0.89222747E+00
   0.18750   0.89136046E+00
   0.18850   0.89051396E+00
   0.18950   0.88967049E+00
   0.19050   0.88880956E+00
   0.19150   0.88790917E+00
   0.19250   0.88694835E+00
   0.19350   0.88590878E+00
   0.19450   0.88477641E+00
   0.19550   0.88354272E+00
   0.19650   0.88220471E+00
   0.19750   0.88076532E+00
   0.19850   0.87923211E+00
   0.19950   0.87761611E+00
   0.20050   0.87593001E+00
   0.20150   0.87418604E+00
   0.20250   0.87239397E+00
   0.20350   0.87055886E+00
   0.20450   0.86867964E+00
   0.20550   0.86674762E+00
   0.20650   0.86474586E+00
   0.20750   0.86264879E+00
   0.20850   0.86042219E+00
   0.20950   0.85802382E+00
   0.21050   0.85540324E+00
   0.21150   0.85250252E+00
   0.21250   0.84927052E+00
   0.21350   0.84577471E+00
   0.21450   0.84231663E+00
   0.21550   0.83910263E+00
   0.21650   0.83692086E+00
   0.21750   0.84000707E+00
   0.21850   0.85174614E+00
   0.21950   0.86383784E+00
   0.22050   0.87376153E+00
   0.22150   0.88195592E+00
   0.22250   0.88889557E+00
   0.22350   0.89489883E+00
   0.22450   0.90017575E+00
   0.22550   0.90486836E+00
   0.22650   0.90907604E+00
   0.22750   0.91287059E+00
   0.22850   0.91630602E+00
   0.22950   0.91942471E+00
   0.23050   0.92226130E+00
   0.23150   0.92484564E+00
   0.23250   0.92720377E+00
   0.23350   0.92935830E+00
   0.23450   0.93133104E+00
   0.23550   0.93317556E+00
   0.23650   0.93494999E+00
   0.23750   0.93666255E+00
   0.23850   0.93831289E+00
   0.23950   0.93989915E+00
   0.24050   0.94141859E+00
   0.24150   0.94286776E+00
   0.24250   0.94424331E+00
   0.24350   0.94554299E+00
   0.24450   0.94676590E+00
   0.24550   0.94791305E+00
   0.24650   0.94898725E+00
   0.24750   0.94999319E+00
   0.24850   0.95093697E+00
   0.24950   0.95182556E+00
   0.25050   0.95266658E+00
   0.25150   0.95346761E+00
   0.25250   0.95423561E+00
   0.25350   0.95497662E+00
   0.25450   0.95569545E+00
   0.25550   0.95639545E+00
   0.25650   0.95707852E+00
   0.25750   0.95774519E+00
   0.25850   0.95839477E+00
   0.25950   0.95902574E+00
   0.26050   0.95963609E+00
   0.26150   0.96022356E+00
   0.26250   0.96078598E+00
   0.26350   0.96132177E+00
   0.26450   0.96183002E+00
   0.26550   0.96231061E+00
   0.26650   0.96276432E+00
   0.26750   0.96319276E+00
   0.26850   0.96359825E+00
   0.26950   0.96398354E+00
   0.27050   0.96435183E+00
   0.27150   0.96470618E+00
   0.27250   0.96504951E+00
   0.27350   0.96538419E+00
   0.27450   0.96571207E+00
   0.27550   0.96603423E+00
   0.27650   0.96635097E+00
   0.27750   0.96666181E+00
   0.27850   0.96696579E+00
   0.27950   0.96726125E+00
   0.28050   0.96754652E+00
   0.28150   0.96781969E+00
   0.28250   0.96807915E+00
   0.28350   0.96832347E+00
   0.28450   0.96855205E+00
   0.28550   0.96876466E+00
   0.28650   0.96896183E+00
   0.28750   0.96914476E+00
   0.28850   0.96931517E+00
   0.28950   0.96947521E+00
   0.29050   0.96962714E+00
   0.29150   0.96977341E+00
   0.29250   0.96991605E+00
   0.29350   0.97005671E+00
   0.29450   0.97019643E+00
   0.29550   0.97033560E+00
   0.29650   0.97047371E+00
   0.29750   0.97060913E+00
   0.29850   0.97073847E+00
   0.29950   0.97085339E+00
   0.30050   0.97095138E+00
   0.30150   0.97103715E+00
   0.30250   0.97111279E+00
   0.30350   0.97117937E+00
   0.30450   0.97123760E+00
   0.30550   0.97128826E+00
   0.30650   0.97133195E+00
   0.30750   0.97136915E+00
   0.30850   0.97140026E+00
   0.30950   0.97142559E+00
   0.31050   0.97144538E+00
   0.31150   0.97145975E+00
   0.31250   0.97146851E+00
   0.31350   0.97147161E+00
   0.31450   0.97146875E+00
   0.31550   0.97145963E+00
   0.31650   0.97144377E+00
   0.31750   0.97142082E+00
   0.31850   0.97139037E+00
   0.31950   0.97135192E+00
   0.32050   0.97130519E+00
   0.32150   0.97124976E+00
   0.32250   0.97118539E+00
   0.32350   0.97111195E+00
   0.32450   0.97102928E+00
   0.32550   0.97093731E+00
   0.32650   0.97083604E+00
   0.32750   0.97072560E+00
   0.32850   0.97060591E+00
   0.32950   0.97047710E+00
   0.33050   0.97033918E+00
   0.33150   0.97019207E+00
   0.33250   0.97003561E+00
   0.33350   0.96986955E+00
   0.33450   0.96969354E+00
   0.33550   0.96950698E+00
   0.33650   0.96930915E+00
   0.33750   0.96909893E+00
   0.33850   0.96887505E+00
   0.33950   0.96863568E+00
   0.34050   0.96837866E+00
   0.34150   0.96810269E+00
   0.34250   0.96781039E+00
   0.34350   0.96750432E+00
   0.34450   0.96717900E+00
   0.34550   0.96683371E+00
   0.34650   0.96646917E+00
   0.34750   0.96608168E+00
   0.34850   0.96566767E+00
   0.34950   0.96522450E+00
   0.35050   0.96474987E+00
   0.35150   0.96424127E+00
   0.35250   0.96369588E+00
   0.35350   0.96311039E+00
   0.35450   0.96248078E+00
   0.35550   0.96180248E+00
   0.35650   0.96107012E+00
   0.35750   0.96027869E+00
   0.35850   0.95942539E+00
   0.35950   0.95851767E+00
   0.36050   0.95760322E+00
   0.36150   0.95690560E+00
   0.36250   0.95742697E+00
   0.36350   0.96028495E+00
   0.36450   0.96343899E+00
   0.36550   0.96604913E+00
   0.36650   0.96820039E+00
   0.36750   0.97001451E+00
   0.36850   0.97157657E+00
   0.36950   0.97294414E+00
   0.37050   0.97415751E+00
   0.37150   0.97524559E+00
   0.37250   0.97623014E+00
   0.37350   0.97712761E+00
   0.37450   0.97795093E+00
   0.37550   0.97871035E+00
   0.37650   0.97941405E+00
   0.37750   0.98006868E+00
   0.37850   0.98067987E+00
   0.37950   0.98125196E+00
   0.38050   0.98178881E+00
   0.38150   0.98229325E+00
   0.38250   0.98276591E+00
   0.38350   0.98320788E+00
   0.38450   0.98362345E+00
   0.38550   0.98401624E+00
   0.38650   0.98438895E+00
   0.38750   0.98474360E+00
   0.38850   0.98508215E+00
   0.38950   0.98540586E+00
   0.39050   0.98571593E+00
   0.39150   0.98601317E+00
   0.39250   0.98629826E+00
   0.39350   0.98657167E+00
   0.39450   0.98683381E+00
   0.39550   0.98708498E+00
   0.39650   0.98732561E+00
   0.39750   0.98755592E+00
   0.39850   0.98777646E+00
   0.39950   0.98798758E+00
   0.40050   0.98818994E+00
   0.40150   0.98838395E+00
   0.40250   0.98857033E+00
   0.40350   0.98874962E+00
   0.40450   0.98892248E+00
   0.40550   0.98908949E+00
   0.40650   0.98925102E+00
   0.40750   0.98940754E+00
   0.40850   0.98955935E+00
   0.40950   0.98970670E+00
   0.41050   0.98984963E+00
   0.41150   0.98998821E+00
   0.41250   0.99012238E+00
   0.41350   0.99025184E+00
   0.41450   0.99037611E+00
   0.41550   0.99049556E+00
   0.41650   0.99061102E+00
   0.41750   0.99072284E+00
   0.41850   0.99083114E+00
   0.41950   0.99093598E+00
   0.42050   0.99103755E+00
   0.42150   0.99113595E+00
   0.42250   0.99123132E+00
   0.42350   0.99132383E+00
   0.42450   0.99141347E+00
   0.42550   0.99150044E+00
   0.42650   0.99158484E+00
   0.42750   0.99166667E+00
   0.42850   0.99174607E+00
   0.42950   0.99182314E+00
   0.43050   0.99189782E+00
   0.43150   0.99197018E+00
   0.43250   0.99204034E+00
   0.43350   0.99210823E+00
   0.43450   0.99217385E+00
   0.43550   0.99223733E+00
   0.43650   0.99229854E+00
   0.43750   0.99235761E+00
   0.43850   0.99241447E+00
   0.43950   0.99246925E+00
   0.44050   0.99252194E+00
   0.44150   0.99257267E+00
   0.44250   0.99262154E+00
   0.44350   0.99266857E+00
   0.44450   0.99271381E+00
   0.44550   0.99275732E+00
   0.44650   0.99279928E+00
   0.44750   0.99283987E+00
   0.44850   0.99287927E+00
   0.44950   0.99291795E+00
   0.45050   0.99295634E+00
   0.45150   0.99299514E+00
   0.45250   0.99303538E+00
   0.45350   0.99307841E+00
   0.45450   0.99312669E+00
   0.45550   0.99318385E+00
   0.45650   0.99325669E+00
   0.45750   0.99335778E+00
   0.45850   0.99351287E+00
   0.45950   0.99377948E+00
   0.46050   0.99429053E+00
   0.46150   0.99522257E+00
   0.46250   0.99558043E+00
   0.46350   0.99423265E+00
   0.46450   0.99337453E+00
   0.46550   0.99304020E+00
   0.46650   0.99289191E+00
   0.46750   0.99280679E+00
   0.46850   0.99274039E+00
   0.46950   0.99267018E+00
   0.47050   0.99257386E+00
   0.47150   0.99241126E+00
   0.47250   0.99208939E+00
   0.47350   0.99158448E+00
   0.47450   0.99995017E+00
   0.47550   0.99653649E+00
   0.47650   0.99539703E+00
   0.47750   0.99496078E+00
   0.47850   0.99465984E+00
   0.47950   0.99433172E+00
   0.48050   0.99393469E+00
   0.48150   0.99349999E+00
   0.48250   0.99309778E+00
   0.48350   0.99280757E+00
   0.48450   0.99273056E+00
   0.48550   0.99317217E+00
   0.48650   0.10076308E+01
   0.48750   0.98962665E+00
   0.48850   0.97190320E+00
   0.48950   0.73468304E+00
   0.49050   0.42182294E+00
   0.49150   0.39131349E+00
   0.49250   0.32316315E+00
   0.49350   0.34081635E+00
   0.49450   0.37834582E+00
   0.49550   0.37938210E+00
   0.49650   0.35382283E+00
   0.49750   0.30777603E+00
   0.49850   0.25347224E+00
   0.49950   0.20594113E+00
   0.50050   0.17162900E+00
   0.50150   0.14923693E+00
   0.50250   0.13531733E+00
   0.50350   0.12787944E+00
   0.50450   0.12694061E+00
   0.50550   0.13248092E+00
   0.50650   0.14242770E+00
   0.50750   0.15333220E+00
   0.50850   0.16268606E+00
   0.50950   0.17000864E+00
   0.51050   0.17596783E+00
   0.51150   0.18092453E+00
   0.51250   0.18439265E+00
   0.51350   0.18559292E+00
   0.51450   0.18415681E+00
   0.51550   0.18029456E+00
   0.51650   0.17453568E+00
   0.51750   0.16741024E+00
   0.51850   0.15929364E+00
   0.51950   0.15043265E+00
   0.52050   0.14103721E+00
   0.52150   0.13136770E+00
   0.52250   0.12177564E+00
   0.52350   0.11258291E+00
   0.52450   0.10404667E+00
   0.52550   0.96334249E-01
   0.52650   0.89527227E-01
   0.52750   0.83669856E-01
   0.52850   0.78819603E-01
   0.52950   0.75060263E-01
   0.53050   0.72478272E-01
   0.53150   0.71133628E-01
   0.53250   0.71048513E-01
   0.53350   0.72216116E-01
   0.53450   0.74627846E-01
   0.53550   0.78243546E-01
   0.53650   0.83006456E-01
   0.53750   0.88860855E-01
   0.53850   0.95752075E-01
   0.53950   0.10362392E+00
   0.54050   0.11241438E+00
   0.54150   0.12205119E+00
   0.54250   0.13244887E+00
   0.54350   0.14350921E+00
   0.54450   0.15512532E+00
   0.54550   0.16718850E+00
   0.54650   0.17959619E+00
   0.54750   0.19225892E+00
   0.54850   0.20510441E+00
   0.54950   0.21807794E+00
   0.55050   0.23113883E+00
   0.55150   0.24425420E+00
   0.55250   0.25739160E+00
   0.55350   0.27051258E+00
   0.55450   0.28356862E+00
   0.55550   0.29650089E+00
   0.55650   0.30924293E+00
   0.55750   0.32172588E+00
   0.55850   0.33388433E+00
   0.55950   0.34566164E+00
   0.56050   0.35701293E+00
   0.56150   0.36790559E+00
   0.56250   0.37831748E+00
   0.56350   0.38823348E+00
   0.56450   0.39764151E+00
   0.56550   0.40652946E+00
   0.56650   0.41488335E+00
   0.56750   0.42268717E+00
   0.56850   0.42992422E+00
   0.56950   0.43657902E+00
   0.57050   0.44263959E+00
   0.57150   0.44809890E+00
   0.57250   0.45295519E+00
   0.57350   0.45721146E+00
   0.57450   0.46087402E+00
   0.57550   0.46395093E+00
   0.57650   0.46645066E+00
   0.57750   0.46838167E+00
   0.57850   0.46975249E+00
   0.57950   0.47057155E+00
   0.58050   0.47084439E+00
   0.58150   0.47056636E+00
   0.58250   0.46971741E+00
   0.58350   0.46828619E+00
   0.58450   0.46632415E+00
   0.58550   0.46392369E+00
   0.58650   0.46110857E+00
   0.58750   0.45784020E+00
   0.58850   0.45410630E+00
   0.58950   0.44993788E+00
   0.59050   0.44538033E+00
   0.59150   0.44047338E+00
   0.59250   0.43524608E+00
   0.59350   0.42971918E+00
   0.59450   0.42390877E+00
   0.59550   0.41782978E+00
   0.59650   0.41149861E+00
   0.59750   0.40493506E+00
   0.59850   0.39816296E+00
   0.59950   0.39121026E+00
   0.60050   0.38410822E+00
   0.60150   0.37689027E+00
   0.60250   0.36959073E+00
   0.60350   0.36224356E+00
   0.60450   0.35488144E+00
   0.60550   0.34753546E+00
   0.60650   0.34023538E+00
   0.60750   0.33301026E+00
   0.60850   0.32588980E+00
   0.60950   0.31890598E+00
   0.61050   0.31209502E+00
   0.61150   0.30549946E+00
   0.61250   0.29917094E+00
   0.61350   0.29317316E+00
   0.61450   0.28758663E+00
   0.61550   0.28251547E+00
   0.61650   0.27809963E+00
   0.61750   0.27453560E+00
   0.61850   0.27210432E+00
   0.61950   0.27129102E+00
   0.62050   0.27335179E+00
   0.62150   0.28141505E+00
   0.62250   0.30178139E+00
   0.62350   0.32935300E+00
   0.62450   0.35323200E+00
   0.62550   0.37393269E+00
   0.62650   0.39288586E+00
   0.62750   0.41089296E+00
   0.62850   0.42840207E+00
   0.62950   0.44567895E+00
   0.63050   0.46288916E+00
   0.63150   0.48013940E+00
   0.63250   0.49749976E+00
   0.63350   0.51501679E+00
   0.63450   0.53272116E+00
   0.63550   0.55063242E+00
   0.63650   0.56876242E+00
   0.63750   0.58711714E+00
   0.63850   0.60569835E+00
   0.63950   0.62450451E+00
   0.64050   0.64353174E+00
   0.64150   0.66277474E+00
   0.64250   0.68222713E+00
   0.64350   0.70188260E+00
   0.64450   0.72173506E+00
   0.64550   0.74177974E+00
   0.64650   0.76201361E+00
   0.64750   0.78243631E+00
   0.64850   0.80305135E+00
   0.64950   0.82386762E+00
   0.65050   0.84490252E+00
   0.65150   0.86618704E+00
   0.65250   0.88777620E+00
   0.65350   0.90977263E+00
   0.65450   0.93238395E+00
   0.65550   0.95608896E+00
   0.65650   0.98221445E+00
   0.65750   0.10155255E+01
   0.65850   0.10804622E+01
   0.65950   0.12916695E+01
   0.66050   0.12600323E+01
   0.66150   0.11940687E+01
   0.66250   0.12008176E+01
   0.66350   0.12341931E+01
   0.66450   0.12872260E+01
   0.66550   0.13621671E+01
   0.66650   0.14540390E+01
   0.66750   0.15173123E+01
   0.66850   0.14859415E+01
   0.66950   0.14044535E+01
   0.67050   0.13495811E+01
   0.67150   0.13358591E+01
   0.67250   0.13631537E+01
   0.67350   0.14435437E+01
   0.67450   0.15089816E+01
   0.67550   0.14259217E+01
   0.67650   0.12683719E+01
   0.67750   0.11914071E+01
   0.67850   0.97468871E+00
   0.67950   0.84920675E+00
   0.68050   0.93592590E+00
   0.68150   0.11010965E+01
   0.68250   0.11467196E+01
   0.68350   0.10940504E+01
   0.68450   0.99548501E+00
   0.68550   0.89926869E+00
   0.68650   0.82640696E+00
   0.68750   0.78181607E+00
   0.68850   0.76778567E+00
   0.68950   0.78062516E+00
   0.69050   0.81268376E+00
   0.69150   0.85792190E+00
   0.69250   0.91218829E+00
   0.69350   0.97179848E+00
   0.69450   0.10336069E+01
   0.69550   0.10953840E+01
   0.69650   0.11555099E+01
   0.69750   0.12125398E+01
   0.69850   0.12651689E+01
   0.69950   0.13124545E+01
   0.70050   0.13539479E+01
   0.70150   0.13896174E+01
   0.70250   0.14196594E+01
   0.70350   0.14443282E+01
   0.70450   0.14638419E+01
   0.70550   0.14783537E+01
   0.70650   0.14880221E+01
   0.70750   0.14931166E+01
   0.70850   0.14939651E+01
   0.70950   0.14909335E+01
   0.71050   0.14844115E+01
   0.71150   0.14747920E+01
   0.71250   0.14624573E+01
   0.71350   0.14477737E+01
   0.71450   0.14310986E+01
   0.71550   0.14127914E+01
   0.71650   0.13932223E+01
   0.71750   0.13727700E+01
   0.71850   0.13518066E+01
   0.71950   0.13306798E+01
   0.72050   0.13096954E+01
   0.72150   0.12891123E+01
   0.72250   0.12691489E+01
   0.72350   0.12499957E+01
   0.72450   0.12318296E+01
   0.72550   0.12148231E+01
   0.72650   0.11991462E+01
   0.72750   0.11849638E+01
   0.72850   0.11724349E+01
   0.72950   0.11617291E+01
   0.73050   0.11531111E+01
   0.73150   0.11473281E+01
   0.73250   0.11467408E+01
   0.73350   0.11515168E+01
   0.73450   0.11580856E+01
   0.73550   0.11658425E+01
   0.73650   0.11749456E+01
   0.73750   0.11855230E+01
   0.73850   0.11976417E+01
   0.73950   0.12113245E+01
   0.74050   0.12265613E+01
   0.74150   0.12433138E+01
   0.74250   0.12615191E+01
   0.74350   0.12810924E+01
   0.74450   0.13019334E+01
   0.74550   0.13239312E+01
   0.74650   0.13469720E+01
   0.74750   0.13709440E+01
   0.74850   0.13957410E+01
   0.74950   0.14212638E+01
   0.75050   0.14474195E+01
   0.75150   0.14741193E+01
   0.75250   0.15012761E+01
   0.75350   0.15288031E+01
   0.75450   0.15566133E+01
   0.75550   0.15846205E+01
   0.75650   0.16127405E+01
   0.75750   0.16408944E+01
   0.75850   0.16690094E+01
   0.75950   0.16970206E+01
   0.76050   0.17248706E+01
   0.76150   0.17525084E+01
   0.76250   0.17798886E+01
   0.76350   0.18069690E+01
   0.76450   0.18337101E+01
   0.76550   0.18600739E+01
   0.76650   0.18860247E+01
   0.76750   0.19115300E+01
   0.76850   0.19365615E+01
   0.76950   0.19610959E+01
   0.77050   0.19851162E+01
   0.77150   0.20086110E+01
   0.77250   0.20315733E+01
   0.77350   0.20540001E+01
   0.77450   0.20758896E+01
   0.77550   0.20972402E+01
   0.77650   0.21180489E+01
   0.77750   0.21383111E+01
   0.77850   0.21580205E+01
   0.77950   0.21771698E+01
   0.78050   0.21957531E+01
   0.78150   0.22137775E+01
   0.78250   0.22313056E+01
   0.78350   0.22483659E+01
   0.78450   0.22649114E+01
   0.78550   0.22809281E+01
   0.78650   0.22964082E+01
   0.78750   0.23113351E+01
   0.78850   0.23256772E+01
   0.78950   0.23393836E+01
   0.79050   0.23523774E+01
   0.79150   0.23645599E+01
   0.79250   0.23758430E+01
   0.79350   0.23863509E+01
   0.79450   0.23976099E+01
   0.79550   0.22164047E+01
   0.79650   0.23770254E+01
   0.79750   0.23740304E+01
   0.79850   0.23586512E+01
   0.79950   0.23315897E+01
   0.80050   0.22941494E+01
   0.80150   0.22528329E+01
   0.80250   0.22174289E+01
   0.80350   0.22225626E+01
   0.80450   0.20697711E+01
   0.80550   0.19143775E+01
   0.80650   0.18292696E+01
   0.80750   0.17799754E+01
   0.80850   0.16266428E+01
   0.80950   0.17974184E+01
   0.81050   0.20020933E+01
   0.81150   0.19308727E+01
   0.81250   0.20995250E+01
   0.81350   0.21576066E+01
   0.81450   0.21092196E+01
   0.81550   0.20676091E+01
   0.81650   0.20469048E+01
   0.81750   0.20590005E+01
   0.81850   0.21018384E+01
   0.81950   0.21643691E+01
   0.82050   0.22318428E+01
   0.82150   0.22947893E+01
   0.82250   0.23491268E+01
   0.82350   0.23916938E+01
   0.82450   0.24231541E+01
   0.82550   0.24502485E+01
   0.82650   0.24817457E+01
   0.82750   0.25089550E+01
   0.82850   0.25281675E+01
   0.82950   0.25403686E+01
   0.83050   0.25453806E+01
   0.83150   0.25434682E+01
   0.83250   0.25363314E+01
   0.83350   0.25259845E+01
   0.83450   0.25134847E+01
   0.83550   0.24991424E+01
   0.83650   0.24833553E+01
   0.83750   0.24668567E+01
   0.83850   0.24503837E+01
   0.83950   0.24343727E+01
   0.84050   0.24190152E+01
   0.84150   0.24045420E+01
   0.84250   0.23914084E+01
   0.84350   0.23801432E+01
   0.84450   0.23708742E+01
   0.84550   0.23635387E+01
   0.84650   0.23580067E+01
   0.84750   0.23541038E+01
   0.84850   0.23516526E+01
   0.84950   0.23507769E+01
   0.85050   0.23520131E+01
   0.85150   0.23559234E+01
   0.85250   0.23629012E+01
   0.85350   0.23730853E+01
   0.85450   0.23863699E+01
   0.85550   0.24024842E+01
   0.85650   0.24210875E+01
   0.85750   0.24418383E+01
   0.85850   0.24644163E+01
   0.85950   0.24885101E+01
   0.86050   0.25137928E+01
   0.86150   0.25399113E+01
   0.86250   0.25665023E+01
   0.86350   0.25932286E+01
   0.86450   0.26198163E+01
   0.86550   0.26460707E+01
   0.86650   0.26718571E+01
   0.86750   0.26970549E+01
   0.86850   0.27214983E+01
   0.86950   0.27449360E+01
   0.87050   0.27670355E+01
   0.87150   0.27874331E+01
   0.87250   0.28058178E+01
   0.87350   0.28220117E+01
   0.87450   0.28360240E+01
   0.87550   0.28480656E+01
   0.87650   0.28585172E+01
   0.87750   0.28678641E+01
   0.87850   0.28766041E+01
   0.87950   0.28851571E+01
   0.88050   0.28938029E+01
   0.88150   0.29026604E+01
   0.88250   0.29117038E+01
   0.88350   0.29207892E+01
   0.88450   0.29296637E+01
   0.88550   0.29379485E+01
   0.88650   0.29451075E+01
   0.88750   0.29504113E+01
   0.88850   0.29528933E+01
   0.88950   0.29512081E+01
   0.89050   0.29431624E+01
   0.89150   0.29243164E+01
   0.89250   0.28848825E+01
   0.89350   0.28082731E+01
   0.89450   0.26937504E+01
   0.89550   0.26029513E+01
   0.89650   0.25892208E+01
   0.89750   0.22651706E+01
   0.89850   0.25557168E+01
   0.89950   0.25902228E+01
   0.90050   0.25561903E+01
   0.90150   0.24254286E+01
   0.90250   0.23508604E+01
   0.90350   0.23981795E+01
   0.90450   0.25199909E+01
   0.90550   0.26902063E+01
   0.90650   0.28633051E+01
   0.90750   0.30687985E+01
   0.90850   0.32806745E+01
   0.90950   0.33835759E+01
   0.91050   0.34217155E+01
   0.91150   0.33765769E+01
   0.91250   0.32960134E+01
   0.91350   0.32238514E+01
   0.91450   0.31870160E+01
   0.91550   0.31484129E+01
   0.91650   0.31009324E+01
   0.91750   0.30683355E+01
   0.91850   0.30593793E+01
   0.91950   0.30627468E+01
   0.92050   0.30590060E+01
   0.92150   0.30358779E+01
   0.92250   0.29947603E+01
   0.92350   0.29423990E+01
   0.92450   0.28832464E+01
   0.92550   0.28219068E+01
   0.92650   0.27685318E+01
   0.92750   0.27375236E+01
   0.92850   0.27362590E+01
   0.92950   0.27573743E+01
   0.93050   0.27848618E+01
   0.93150   0.28021975E+01
   0.93250   0.27994916E+01
   0.93350   0.27809072E+01
   0.93450   0.27596655E+01
   0.93550   0.27466061E+01
   0.93650   0.27463233E+01
   0.93750   0.27585602E+01
   0.93850   0.27803047E+01
   0.93950   0.28076532E+01
   0.94050   0.28371587E+01
   0.94150   0.28662817E+01
   0.94250   0.28930030E+01
   0.94350   0.29151192E+01
   0.94450   0.29296849E+01
   0.94550   0.29333813E+01
   0.94650   0.29232907E+01
   0.94750   0.28971105E+01
   0.94850   0.28555820E+01
   0.94950   0.28025296E+01
   0.95050   0.27420819E+01
   0.95150   0.26768765E+01
   0.95250   0.26081851E+01
   0.95350   0.25365577E+01
   0.95450   0.24634757E+01
   0.95550   0.23934555E+01
   0.95650   0.23273368E+01
   0.95750   0.22648590E+01
   0.95850   0.22176580E+01
   0.95950   0.21947947E+01
   0.96050   0.21916621E+01
   0.96150   0.21952939E+01
   0.96250   0.21955032E+01
   0.96350   0.21858997E+01
   0.96450   0.21602809E+01
   0.96550   0.21115487E+01
   0.96650   0.20342991E+01
   0.96750   0.19303157E+01
   0.96850   0.18166651E+01
   0.96950   0.17381749E+01
   0.97050   0.17088659E+01
   0.97150   0.16630154E+01
   0.97250   0.16391326E+01
   0.97350   0.16570605E+01
   0.97450   0.16953431E+01
   0.97550   0.17212145E+01
   0.97650   0.17367753E+01
   0.97750   0.17588993E+01
   0.97850   0.17810780E+01
   0.97950   0.17891159E+01
   0.98050   0.18182899E+01
   0.98150   0.18750733E+01
   0.98250   0.19137143E+01
   0.98350   0.18867284E+01
   0.98450   0.18294371E+01
   0.98550   0.18038357E+01
   0.98650   0.18181291E+01
   0.98750   0.18524399E+01
   0.98850   0.18766025E+01
   0.98950   0.18821796E+01
   0.99050   0.18798991E+01
   0.99150   0.18797754E+01
   0.99250   0.18810163E+01
   0.99350   0.18771131E+01
   0.99450   0.18669096E+01
   0.99550   0.18561631E+01
   0.99650   0.18452165E+01
   0.99750   0.18375220E+01
   0.99850   0.18009936E+01
   0.99950   0.17423284E+01
