# Transmission, k-averaged
# Date: 2021-05-13
#   E [eV]           T [G0]
   0.00050   0.20924881E-01
   0.00150   0.25677357E-01
   0.00250   0.23195921E-01
   0.00350   0.20626470E-01
   0.00450   0.22308856E-01
   0.00550   0.16318558E-01
   0.00650   0.17639130E-01
   0.00750   0.26987994E-01
   0.00850   0.12994909E-01
   0.00950   0.22451587E-01
   0.01050   0.14681026E-01
   0.01150   0.12237003E-01
   0.01250   0.44286311E-01
   0.01350   0.12199047E-01
   0.01450   0.16039649E-01
   0.01550   0.11739332E-01
   0.01650   0.49694427E-02
   0.01750   0.23165189E-02
   0.01850   0.96678169E-03
   0.01950   0.16092949E-02
   0.02050   0.37844751E-02
   0.02150   0.62252530E-02
   0.02250   0.11143576E-01
   0.02350   0.20065270E-01
   0.02450   0.17449828E-01
   0.02550   0.13544121E-01
   0.02650   0.17117931E-01
   0.02750   0.40079981E-01
   0.02850   0.50184682E-01
   0.02950   0.17682368E-01
   0.03050   0.10689992E-01
   0.03150   0.11835441E-01
   0.03250   0.27031485E-01
   0.03350   0.96845627E-01
   0.03450   0.19649144E-01
   0.03550   0.73943776E-02
   0.03650   0.53860527E-02
   0.03750   0.67263632E-02
   0.03850   0.17298723E-01
   0.03950   0.85051820E-01
   0.04050   0.12451229E-01
   0.04150   0.44042985E-02
   0.04250   0.30330431E-02
   0.04350   0.34434586E-02
   0.04450   0.70014796E-02
   0.04550   0.19221043E-01
   0.04650   0.85321078E-02
   0.04750   0.34130309E-02
   0.04850   0.20676695E-02
   0.04950   0.16811028E-02
   0.05050   0.17099332E-02
   0.05150   0.20677501E-02
   0.05250   0.26991481E-02
   0.05350   0.30648420E-02
   0.05450   0.25651213E-02
   0.05550   0.18487162E-02
   0.05650   0.13983455E-02
   0.05750   0.11908847E-02
   0.05850   0.11497946E-02
   0.05950   0.12388278E-02
   0.06050   0.14364781E-02
   0.06150   0.16716339E-02
   0.06250   0.17759728E-02
   0.06350   0.16470973E-02
   0.06450   0.14093727E-02
   0.06550   0.12121570E-02
   0.06650   0.11042238E-02
   0.06750   0.10851471E-02
   0.06850   0.11478596E-02
   0.06950   0.12839867E-02
   0.07050   0.14666766E-02
   0.07150   0.16275808E-02
   0.07250   0.16807949E-02
   0.07350   0.16102896E-02
   0.07450   0.14859138E-02
   0.07550   0.13817224E-02
   0.07650   0.13343181E-02
   0.07750   0.13552678E-02
   0.07850   0.14467670E-02
   0.07950   0.16035392E-02
   0.08050   0.18018952E-02
   0.08150   0.19865562E-02
   0.08250   0.20857851E-02
   0.08350   0.20682865E-02
   0.08450   0.19737207E-02
   0.08550   0.18706763E-02
   0.08650   0.18100006E-02
   0.08750   0.18180448E-02
   0.08850   0.19076100E-02
   0.08950   0.20832228E-02
   0.09050   0.23293067E-02
   0.09150   0.25598111E-02
   0.09250   0.25423951E-02
   0.09350   0.22741635E-02
   0.09450   0.19738865E-02
   0.09550   0.17237365E-02
   0.09650   0.15399797E-02
   0.09750   0.14160908E-02
   0.09850   0.13384135E-02
   0.09950   0.12907992E-02
   0.10050   0.12550013E-02
   0.10150   0.12117318E-02
   0.10250   0.11458311E-02
   0.10350   0.10542086E-02
   0.10450   0.94875414E-03
   0.10550   0.84949302E-03
   0.10650   0.77491777E-03
   0.10750   0.73813624E-03
   0.10850   0.74866018E-03
   0.10950   0.81447378E-03
   0.11050   0.93957031E-03
   0.11150   0.11161520E-02
   0.11250   0.13208142E-02
   0.11350   0.15273490E-02
   0.11450   0.17235776E-02
   0.11550   0.19082355E-02
   0.11650   0.20765730E-02
   0.11750   0.22159298E-02
   0.11850   0.23134954E-02
   0.11950   0.23651423E-02
   0.12050   0.23767201E-02
   0.12150   0.23590554E-02
   0.12250   0.23226275E-02
   0.12350   0.22751116E-02
   0.12450   0.22213466E-02
   0.12550   0.21642360E-02
   0.12650   0.21056198E-02
   0.12750   0.20468014E-02
   0.12850   0.19887707E-02
   0.12950   0.19322563E-02
   0.13050   0.18777271E-02
   0.13150   0.18254096E-02
   0.13250   0.17753366E-02
   0.13350   0.17274180E-02
   0.13450   0.16815166E-02
   0.13550   0.16375082E-02
   0.13650   0.15953172E-02
   0.13750   0.15549244E-02
   0.13850   0.15163535E-02
   0.13950   0.14796427E-02
   0.14050   0.14448154E-02
   0.14150   0.14118551E-02
   0.14250   0.13806931E-02
   0.14350   0.13512078E-02
   0.14450   0.13232379E-02
   0.14550   0.12966009E-02
   0.14650   0.12711185E-02
   0.14750   0.12466381E-02
   0.14850   0.12230501E-02
   0.14950   0.12002962E-02
   0.15050   0.11783687E-02
   0.15150   0.11573001E-02
   0.15250   0.11371477E-02
   0.15350   0.11179745E-02
   0.15450   0.10998315E-02
   0.15550   0.10827432E-02
   0.15650   0.10666979E-02
   0.15750   0.10516471E-02
   0.15850   0.10375084E-02
   0.15950   0.10241756E-02
   0.16050   0.10115316E-02
   0.16150   0.99946291E-03
   0.16250   0.98787248E-03
   0.16350   0.97668974E-03
   0.16450   0.96587435E-03
   0.16550   0.95541397E-03
   0.16650   0.94531360E-03
   0.16750   0.93557732E-03
   0.16850   0.92618039E-03
   0.16950   0.91702706E-03
   0.17050   0.90788002E-03
   0.17150   0.89822261E-03
   0.17250   0.88692969E-03
   0.17350   0.87130745E-03
   0.17450   0.84368000E-03
   0.17550   0.78225293E-03
   0.17650   0.68778312E-03
   0.17750   0.60925377E-03
   0.17850   0.55050792E-03
   0.17950   0.50481409E-03
   0.18050   0.46792114E-03
   0.18150   0.43732021E-03
   0.18250   0.41144135E-03
   0.18350   0.38924164E-03
   0.18450   0.36999345E-03
   0.18550   0.35316852E-03
   0.18650   0.33837109E-03
   0.18750   0.32529706E-03
   0.18850   0.31370856E-03
   0.18950   0.30341712E-03
   0.19050   0.29427258E-03
   0.19150   0.28615570E-03
   0.19250   0.27897317E-03
   0.19350   0.27265446E-03
   0.19450   0.26714968E-03
   0.19550   0.26242901E-03
   0.19650   0.25848273E-03
   0.19750   0.25532299E-03
   0.19850   0.25298671E-03
   0.19950   0.25154106E-03
   0.20050   0.25109248E-03
   0.20150   0.25180067E-03
   0.20250   0.25390190E-03
   0.20350   0.25774664E-03
   0.20450   0.26386275E-03
   0.20550   0.27306477E-03
   0.20650   0.28664918E-03
   0.20750   0.30675673E-03
   0.20850   0.33706828E-03
   0.20950   0.38415444E-03
   0.21050   0.45986171E-03
   0.21150   0.58280281E-03
   0.21250   0.75085234E-03
   0.21350   0.70729142E-03
   0.21450   0.32990781E-03
   0.21550   0.78967813E-03
   0.21650   0.74459612E-03
   0.21750   0.62076683E-03
   0.21850   0.58354350E-03
   0.21950   0.57095732E-03
   0.22050   0.56176056E-03
   0.22150   0.55418687E-03
   0.22250   0.54821360E-03
   0.22350   0.54390781E-03
   0.22450   0.54132263E-03
   0.22550   0.54051919E-03
   0.22650   0.54159010E-03
   0.22750   0.54468150E-03
   0.22850   0.55001723E-03
   0.22950   0.55793172E-03
   0.23050   0.56891778E-03
   0.23150   0.58368425E-03
   0.23250   0.60313020E-03
   0.23350   0.62735693E-03
   0.23450   0.64668874E-03
   0.23550   0.63183461E-03
   0.23650   0.59764454E-03
   0.23750   0.56335813E-03
   0.23850   0.53220935E-03
   0.23950   0.50424784E-03
   0.24050   0.47907414E-03
   0.24150   0.45628150E-03
   0.24250   0.43552578E-03
   0.24350   0.41652634E-03
   0.24450   0.39905519E-03
   0.24550   0.38292594E-03
   0.24650   0.36798485E-03
   0.24750   0.35410380E-03
   0.24850   0.34117498E-03
   0.24950   0.32910664E-03
   0.25050   0.31782003E-03
   0.25150   0.30724678E-03
   0.25250   0.29732718E-03
   0.25350   0.28800836E-03
   0.25450   0.27924340E-03
   0.25550   0.27099016E-03
   0.25650   0.26321082E-03
   0.25750   0.25587110E-03
   0.25850   0.24893993E-03
   0.25950   0.24238924E-03
   0.26050   0.23619342E-03
   0.26150   0.23032931E-03
   0.26250   0.22477593E-03
   0.26350   0.21951430E-03
   0.26450   0.21452729E-03
   0.26550   0.20979941E-03
   0.26650   0.20531673E-03
   0.26750   0.20106664E-03
   0.26850   0.19703772E-03
   0.26950   0.19321962E-03
   0.27050   0.18960288E-03
   0.27150   0.18617885E-03
   0.27250   0.18293950E-03
   0.27350   0.17987742E-03
   0.27450   0.17698568E-03
   0.27550   0.17425780E-03
   0.27650   0.17168776E-03
   0.27750   0.16926987E-03
   0.27850   0.16699887E-03
   0.27950   0.16486985E-03
   0.28050   0.16287831E-03
   0.28150   0.16102013E-03
   0.28250   0.15929159E-03
   0.28350   0.15768936E-03
   0.28450   0.15621039E-03
   0.28550   0.15485195E-03
   0.28650   0.15361144E-03
   0.28750   0.15248622E-03
   0.28850   0.15147323E-03
   0.28950   0.15056852E-03
   0.29050   0.14976626E-03
   0.29150   0.14905704E-03
   0.29250   0.14842453E-03
   0.29350   0.14783871E-03
   0.29450   0.14724064E-03
   0.29550   0.14650406E-03
   0.29650   0.14532299E-03
   0.29750   0.14281337E-03
   0.29850   0.13601471E-03
   0.29950   0.12106873E-03
   0.30050   0.10589444E-03
   0.30150   0.94362687E-04
   0.30250   0.85481697E-04
   0.30350   0.78382793E-04
   0.30450   0.72540417E-04
   0.30550   0.67627159E-04
   0.30650   0.63427447E-04
   0.30750   0.59792259E-04
   0.30850   0.56614434E-04
   0.30950   0.53814423E-04
   0.31050   0.51331659E-04
   0.31150   0.49119077E-04
   0.31250   0.47139496E-04
   0.31350   0.45363173E-04
   0.31450   0.43766096E-04
   0.31550   0.42328786E-04
   0.31650   0.41035422E-04
   0.31750   0.39873241E-04
   0.31850   0.38832084E-04
   0.31950   0.37904130E-04
   0.32050   0.37083722E-04
   0.32150   0.36367317E-04
   0.32250   0.35753568E-04
   0.32350   0.35243520E-04
   0.32450   0.34840992E-04
   0.32550   0.34553159E-04
   0.32650   0.34391451E-04
   0.32750   0.34372897E-04
   0.32850   0.34522105E-04
   0.32950   0.34874207E-04
   0.33050   0.35479334E-04
   0.33150   0.36409394E-04
   0.33250   0.37768557E-04
   0.33350   0.39709506E-04
   0.33450   0.42458585E-04
   0.33550   0.46353580E-04
   0.33650   0.51894902E-04
   0.33750   0.59790618E-04
   0.33850   0.70883965E-04
   0.33950   0.85493259E-04
   0.34050   0.10056311E-03
   0.34150   0.10179569E-03
   0.34250   0.62616484E-04
   0.34350   0.64044157E-05
   0.34450   0.11766404E-04
   0.34550   0.48525704E-04
   0.34650   0.69079098E-04
   0.34750   0.73867159E-04
   0.34850   0.71911614E-04
   0.34950   0.68026529E-04
   0.35050   0.64049615E-04
   0.35150   0.60558472E-04
   0.35250   0.57669167E-04
   0.35350   0.55345608E-04
   0.35450   0.53512194E-04
   0.35550   0.52092622E-04
   0.35650   0.51021725E-04
   0.35750   0.50247967E-04
   0.35850   0.49733571E-04
   0.35950   0.49456095E-04
   0.36050   0.49417948E-04
   0.36150   0.49690829E-04
   0.36250   0.50587845E-04
   0.36350   0.52325020E-04
   0.36450   0.54147618E-04
   0.36550   0.55842007E-04
   0.36650   0.57480807E-04
   0.36750   0.59134654E-04
   0.36850   0.60857939E-04
   0.36950   0.62696199E-04
   0.37050   0.64691958E-04
   0.37150   0.66889006E-04
   0.37250   0.69336071E-04
   0.37350   0.72090792E-04
   0.37450   0.75224700E-04
   0.37550   0.78830366E-04
   0.37650   0.83032282E-04
   0.37750   0.88004330E-04
   0.37850   0.93997944E-04
   0.37950   0.10138030E-03
   0.38050   0.11060470E-03
   0.38150   0.12116857E-03
   0.38250   0.12625178E-03
   0.38350   0.12296696E-03
   0.38450   0.11767843E-03
   0.38550   0.11243159E-03
   0.38650   0.10757626E-03
   0.38750   0.10314005E-03
   0.38850   0.99086050E-04
   0.38950   0.95367839E-04
   0.39050   0.91942311E-04
   0.39150   0.88772169E-04
   0.39250   0.85825704E-04
   0.39350   0.83075945E-04
   0.39450   0.80499834E-04
   0.39550   0.78077443E-04
   0.39650   0.75791351E-04
   0.39750   0.73626172E-04
   0.39850   0.71568087E-04
   0.39950   0.69604546E-04
   0.40050   0.67723893E-04
   0.40150   0.65915119E-04
   0.40250   0.64167565E-04
   0.40350   0.62470550E-04
   0.40450   0.60812999E-04
   0.40550   0.59182876E-04
   0.40650   0.57566336E-04
   0.40750   0.55946370E-04
   0.40850   0.54300381E-04
   0.40950   0.52595497E-04
   0.41050   0.50778424E-04
   0.41150   0.48750575E-04
   0.41250   0.46296282E-04
   0.41350   0.42861135E-04
   0.41450   0.37664995E-04
   0.41550   0.32632634E-04
   0.41650   0.29068131E-04
   0.41750   0.26480804E-04
   0.41850   0.24504036E-04
   0.41950   0.22940849E-04
   0.42050   0.21678627E-04
   0.42150   0.20648660E-04
   0.42250   0.19807507E-04
   0.42350   0.19127841E-04
   0.42450   0.18593841E-04
   0.42550   0.18198985E-04
   0.42650   0.17945416E-04
   0.42750   0.17844459E-04
   0.42850   0.17918312E-04
   0.42950   0.18203060E-04
   0.43050   0.18753353E-04
   0.43150   0.19649235E-04
   0.43250   0.21005593E-04
   0.43350   0.22984275E-04
   0.43450   0.25807289E-04
   0.43550   0.29765180E-04
   0.43650   0.35204750E-04
   0.43750   0.42462660E-04
   0.43850   0.51694569E-04
   0.43950   0.62579471E-04
   0.44050   0.74052310E-04
   0.44150   0.84495085E-04
   0.44250   0.92613613E-04
   0.44350   0.98163720E-04
   0.44450   0.10159388E-03
   0.44550   0.10337332E-03
   0.44650   0.10390187E-03
   0.44750   0.10362099E-03
   0.44850   0.10297385E-03
   0.44950   0.10232073E-03
   0.45050   0.10190936E-03
   0.45150   0.10189020E-03
   0.45250   0.10234473E-03
   0.45350   0.10330886E-03
   0.45450   0.10478574E-03
   0.45550   0.10674576E-03
   0.45650   0.10910926E-03
   0.45750   0.11169797E-03
   0.45850   0.11412078E-03
   0.45950   0.11551369E-03
   0.46050   0.11398790E-03
   0.46150   0.10581472E-03
   0.46250   0.86474218E-04
   0.46350   0.60947499E-04
   0.46450   0.50206301E-04
   0.46550   0.60211813E-04
   0.46650   0.78147867E-04
   0.46750   0.95696822E-04
   0.46850   0.11061911E-03
   0.46950   0.12247925E-03
   0.47050   0.13078710E-03
   0.47150   0.13433355E-03
   0.47250   0.13074338E-03
   0.47350   0.11651748E-03
   0.47450   0.90629714E-04
   0.47550   0.65653228E-04
   0.47650   0.61916660E-04
   0.47750   0.80379345E-04
   0.47850   0.11978966E-03
   0.47950   0.18540677E-03
   0.48050   0.27636628E-03
   0.48150   0.37864438E-03
   0.48250   0.47191413E-03
   0.48350   0.54206769E-03
   0.48450   0.58696693E-03
   0.48550   0.61370252E-03
   0.48650   0.10054799E-02
   0.48750   0.52987231E-03
   0.48850   0.76369348E-03
   0.48950   0.25951120E-02
   0.49050   0.13968163E-01
   0.49150   0.17317269E-02
   0.49250   0.14203170E-02
   0.49350   0.11850550E-02
   0.49450   0.14931385E-02
   0.49550   0.18269760E-02
   0.49650   0.20157117E-02
   0.49750   0.20719545E-02
   0.49850   0.20356104E-02
   0.49950   0.19079420E-02
   0.50050   0.17170884E-02
   0.50150   0.15078274E-02
   0.50250   0.13114667E-02
   0.50350   0.11444687E-02
   0.50450   0.10130833E-02
   0.50550   0.91756298E-03
   0.50650   0.85422624E-03
   0.50750   0.81647176E-03
   0.50850   0.79612358E-03
   0.50950   0.78471581E-03
   0.51050   0.77457115E-03
   0.51150   0.76034060E-03
   0.51250   0.74036466E-03
   0.51350   0.71623817E-03
   0.51450   0.69079496E-03
   0.51550   0.66645106E-03
   0.51650   0.64505072E-03
   0.51750   0.62871649E-03
   0.51850   0.62031217E-03
   0.51950   0.62192971E-03
   0.52050   0.62771491E-03
   0.52150   0.61943318E-03
   0.52250   0.60984597E-03
   0.52350   0.60915522E-03
   0.52450   0.61526336E-03
   0.52550   0.62610232E-03
   0.52650   0.64100430E-03
   0.52750   0.66003192E-03
   0.52850   0.68289053E-03
   0.52950   0.70824364E-03
   0.53050   0.73387072E-03
   0.53150   0.75707037E-03
   0.53250   0.77189278E-03
   0.53350   0.75778761E-03
   0.53450   0.71679626E-03
   0.53550   0.67544245E-03
   0.53650   0.63902774E-03
   0.53750   0.60719583E-03
   0.53850   0.57906855E-03
   0.53950   0.55389956E-03
   0.54050   0.53115271E-03
   0.54150   0.51047251E-03
   0.54250   0.49162301E-03
   0.54350   0.47442564E-03
   0.54450   0.45871321E-03
   0.54550   0.44430647E-03
   0.54650   0.43101166E-03
   0.54750   0.41863226E-03
   0.54850   0.40698636E-03
   0.54950   0.39592216E-03
   0.55050   0.38532700E-03
   0.55150   0.37512768E-03
   0.55250   0.36528349E-03
   0.55350   0.35577468E-03
   0.55450   0.34659059E-03
   0.55550   0.33771983E-03
   0.55650   0.32914500E-03
   0.55750   0.32084147E-03
   0.55850   0.31277971E-03
   0.55950   0.30492933E-03
   0.56050   0.29726335E-03
   0.56150   0.28976169E-03
   0.56250   0.28241260E-03
   0.56350   0.27521304E-03
   0.56450   0.26816726E-03
   0.56550   0.26128560E-03
   0.56650   0.25458288E-03
   0.56750   0.24807840E-03
   0.56850   0.24179688E-03
   0.56950   0.23577109E-03
   0.57050   0.23004624E-03
   0.57150   0.22468617E-03
   0.57250   0.21978194E-03
   0.57350   0.21546295E-03
   0.57450   0.21191125E-03
   0.57550   0.20937862E-03
   0.57650   0.20820290E-03
   0.57750   0.20881360E-03
   0.57850   0.21170423E-03
   0.57950   0.21733882E-03
   0.58050   0.22601245E-03
   0.58150   0.23797526E-03
   0.58250   0.25468695E-03
   0.58350   0.28097359E-03
   0.58450   0.32184736E-03
   0.58550   0.37053961E-03
   0.58650   0.40884523E-03
   0.58750   0.42570310E-03
   0.58850   0.42370075E-03
   0.58950   0.41072175E-03
   0.59050   0.39328940E-03
   0.59150   0.37519250E-03
   0.59250   0.35822479E-03
   0.59350   0.34307010E-03
   0.59450   0.32987504E-03
   0.59550   0.31855571E-03
   0.59650   0.30894703E-03
   0.59750   0.30087092E-03
   0.59850   0.29416473E-03
   0.59950   0.28869131E-03
   0.60050   0.28434093E-03
   0.60150   0.28102988E-03
   0.60250   0.27869831E-03
   0.60350   0.27730799E-03
   0.60450   0.27684111E-03
   0.60550   0.27729958E-03
   0.60650   0.27870611E-03
   0.60750   0.28110659E-03
   0.60850   0.28457539E-03
   0.60950   0.28922543E-03
   0.61050   0.29522786E-03
   0.61150   0.30285330E-03
   0.61250   0.31256376E-03
   0.61350   0.32523478E-03
   0.61450   0.34273119E-03
   0.61550   0.36948858E-03
   0.61650   0.41678172E-03
   0.61750   0.50963211E-03
   0.61850   0.66322705E-03
   0.61950   0.81986905E-03
   0.62050   0.82382077E-03
   0.62150   0.72317576E-03
   0.62250   0.63074776E-03
   0.62350   0.56191895E-03
   0.62450   0.50948933E-03
   0.62550   0.46837144E-03
   0.62650   0.43528824E-03
   0.62750   0.40807290E-03
   0.62850   0.38526981E-03
   0.62950   0.36587616E-03
   0.63050   0.34918080E-03
   0.63150   0.33466509E-03
   0.63250   0.32194064E-03
   0.63350   0.31070932E-03
   0.63450   0.30073753E-03
   0.63550   0.29183875E-03
   0.63650   0.28386177E-03
   0.63750   0.27668235E-03
   0.63850   0.27019763E-03
   0.63950   0.26432163E-03
   0.64050   0.25898230E-03
   0.64150   0.25411890E-03
   0.64250   0.24968019E-03
   0.64350   0.24562280E-03
   0.64450   0.24190977E-03
   0.64550   0.23850944E-03
   0.64650   0.23539425E-03
   0.64750   0.23253956E-03
   0.64850   0.22992243E-03
   0.64950   0.22752002E-03
   0.65050   0.22530748E-03
   0.65150   0.22325449E-03
   0.65250   0.22131939E-03
   0.65350   0.21943783E-03
   0.65450   0.21749912E-03
   0.65550   0.21529064E-03
   0.65650   0.21234859E-03
   0.65750   0.20747827E-03
   0.65850   0.19688680E-03
   0.65950   0.17121663E-03
   0.66050   0.19411824E-03
   0.66150   0.22851641E-03
   0.66250   0.23171208E-03
   0.66350   0.23157609E-03
   0.66450   0.23055106E-03
   0.66550   0.22818352E-03
   0.66650   0.22347535E-03
   0.66750   0.21684129E-03
   0.66850   0.22300665E-03
   0.66950   0.30221217E-03
   0.67050   0.41588180E-03
   0.67150   0.47207731E-03
   0.67250   0.50765986E-03
   0.67350   0.55089389E-03
   0.67450   0.61831041E-03
   0.67550   0.11629738E-02
   0.67650   0.55599823E-02
   0.67750   0.24133881E-02
   0.67850   0.25009032E-01
   0.67950   0.86409785E-02
   0.68050   0.65262937E-02
   0.68150   0.56294701E-02
   0.68250   0.45343856E-02
   0.68350   0.39398340E-02
   0.68450   0.37296542E-02
   0.68550   0.36548527E-02
   0.68650   0.35485763E-02
   0.68750   0.32969201E-02
   0.68850   0.30075738E-02
   0.68950   0.27951982E-02
   0.69050   0.26495510E-02
   0.69150   0.25501654E-02
   0.69250   0.24809989E-02
   0.69350   0.24298769E-02
   0.69450   0.23879539E-02
   0.69550   0.23495874E-02
   0.69650   0.23124320E-02
   0.69750   0.22772716E-02
   0.69850   0.22470190E-02
   0.69950   0.22251122E-02
   0.70050   0.22142141E-02
   0.70150   0.22158432E-02
   0.70250   0.22305886E-02
   0.70350   0.22567678E-02
   0.70450   0.22768916E-02
   0.70550   0.21991292E-02
   0.70650   0.19911756E-02
   0.70750   0.17912554E-02
   0.70850   0.16280802E-02
   0.70950   0.14944630E-02
   0.71050   0.13825471E-02
   0.71150   0.12866593E-02
   0.71250   0.12028705E-02
   0.71350   0.11284470E-02
   0.71450   0.10614576E-02
   0.71550   0.10005085E-02
   0.71650   0.94456546E-03
   0.71750   0.89283596E-03
   0.71850   0.84469497E-03
   0.71950   0.79963816E-03
   0.72050   0.75725262E-03
   0.72150   0.71719824E-03
   0.72250   0.67919429E-03
   0.72350   0.64300967E-03
   0.72450   0.60845545E-03
   0.72550   0.57537865E-03
   0.72650   0.54365781E-03
   0.72750   0.51319989E-03
   0.72850   0.48393902E-03
   0.72950   0.45583601E-03
   0.73050   0.42888508E-03
   0.73150   0.40317050E-03
   0.73250   0.37922958E-03
   0.73350   0.35782190E-03
   0.73450   0.33848832E-03
   0.73550   0.32094843E-03
   0.73650   0.30516900E-03
   0.73750   0.29115568E-03
   0.73850   0.27890984E-03
   0.73950   0.26841857E-03
   0.74050   0.25965154E-03
   0.74150   0.25256001E-03
   0.74250   0.24707662E-03
   0.74350   0.24311531E-03
   0.74450   0.24057132E-03
   0.74550   0.23932141E-03
   0.74650   0.23922439E-03
   0.74750   0.24012259E-03
   0.74850   0.24184443E-03
   0.74950   0.24420855E-03
   0.75050   0.24702912E-03
   0.75150   0.25012202E-03
   0.75250   0.25331142E-03
   0.75350   0.25643577E-03
   0.75450   0.25935256E-03
   0.75550   0.26194166E-03
   0.75650   0.26410728E-03
   0.75750   0.26577854E-03
   0.75850   0.26690937E-03
   0.75950   0.26747852E-03
   0.76050   0.26748935E-03
   0.76150   0.26697014E-03
   0.76250   0.26597449E-03
   0.76350   0.26458155E-03
   0.76450   0.26289580E-03
   0.76550   0.26104617E-03
   0.76650   0.25918434E-03
   0.76750   0.25748278E-03
   0.76850   0.25613231E-03
   0.76950   0.25534024E-03
   0.77050   0.25532930E-03
   0.77150   0.25633789E-03
   0.77250   0.25862234E-03
   0.77350   0.26246189E-03
   0.77450   0.26816718E-03
   0.77550   0.27609442E-03
   0.77650   0.28666770E-03
   0.77750   0.30041457E-03
   0.77850   0.31801881E-03
   0.77950   0.34037558E-03
   0.78050   0.36844017E-03
   0.78150   0.40093149E-03
   0.78250   0.42490894E-03
   0.78350   0.43817185E-03
   0.78450   0.45352767E-03
   0.78550   0.47340462E-03
   0.78650   0.49755094E-03
   0.78750   0.52556139E-03
   0.78850   0.55718428E-03
   0.78950   0.59239956E-03
   0.79050   0.63157990E-03
   0.79150   0.67597890E-03
   0.79250   0.72944199E-03
   0.79350   0.80661121E-03
   0.79450   0.10097228E-02
   0.79550   0.57696532E-02
   0.79650   0.96047041E-03
   0.79750   0.90657489E-03
   0.79850   0.95229666E-03
   0.79950   0.10233604E-02
   0.80050   0.11324831E-02
   0.80150   0.13561122E-02
   0.80250   0.23394732E-02
   0.80350   0.49943514E-02
   0.80450   0.50390819E-02
   0.80550   0.10259084E-01
   0.80650   0.74417391E-02
   0.80750   0.21626173E-01
   0.80850   0.48760992E-01
   0.80950   0.12767267E+00
   0.81050   0.10641174E+00
   0.81150   0.71753047E-01
   0.81250   0.41011110E-01
   0.81350   0.26711497E-01
   0.81450   0.17852303E-01
   0.81550   0.12763090E-01
   0.81650   0.10119475E-01
   0.81750   0.91224173E-02
   0.81850   0.90125212E-02
   0.81950   0.90432940E-02
   0.82050   0.88582095E-02
   0.82150   0.84639611E-02
   0.82250   0.78986306E-02
   0.82350   0.72645601E-02
   0.82450   0.67267530E-02
   0.82550   0.63787256E-02
   0.82650   0.62092138E-02
   0.82750   0.61132815E-02
   0.82850   0.60568219E-02
   0.82950   0.60476451E-02
   0.83050   0.60821613E-02
   0.83150   0.61398973E-02
   0.83250   0.61999355E-02
   0.83350   0.62570013E-02
   0.83450   0.63208477E-02
   0.83550   0.64042127E-02
   0.83650   0.65128854E-02
   0.83750   0.66424455E-02
   0.83850   0.67806700E-02
   0.83950   0.69138505E-02
   0.84050   0.70323432E-02
   0.84150   0.71270196E-02
   0.84250   0.71620056E-02
   0.84350   0.70408573E-02
   0.84450   0.68448079E-02
   0.84550   0.66973227E-02
   0.84650   0.66057411E-02
   0.84750   0.65615592E-02
   0.84850   0.65352540E-02
   0.84950   0.65312982E-02
   0.85050   0.65650106E-02
   0.85150   0.66331727E-02
   0.85250   0.67299944E-02
   0.85350   0.68508200E-02
   0.85450   0.69922232E-02
   0.85550   0.71514123E-02
   0.85650   0.73257075E-02
   0.85750   0.75123971E-02
   0.85850   0.77089900E-02
   0.85950   0.79136817E-02
   0.86050   0.81257792E-02
   0.86150   0.83458144E-02
   0.86250   0.85752504E-02
   0.86350   0.88158417E-02
   0.86450   0.90689370E-02
   0.86550   0.93349824E-02
   0.86650   0.96134404E-02
   0.86750   0.99031590E-02
   0.86850   0.10203064E-01
   0.86950   0.10512881E-01
   0.87050   0.10833548E-01
   0.87150   0.11167129E-01
   0.87250   0.11516282E-01
   0.87350   0.11883594E-01
   0.87450   0.12271045E-01
   0.87550   0.12679793E-01
   0.87650   0.13110278E-01
   0.87750   0.13562564E-01
   0.87850   0.14036804E-01
   0.87950   0.14533719E-01
   0.88050   0.15054965E-01
   0.88150   0.15603372E-01
   0.88250   0.16183041E-01
   0.88350   0.16799377E-01
   0.88450   0.17459124E-01
   0.88550   0.18170439E-01
   0.88650   0.18943133E-01
   0.88750   0.19789251E-01
   0.88850   0.20724474E-01
   0.88950   0.21771181E-01
   0.89050   0.22965001E-01
   0.89150   0.24368223E-01
   0.89250   0.26094323E-01
   0.89350   0.28336223E-01
   0.89450   0.31377949E-01
   0.89550   0.35996489E-01
   0.89650   0.48294816E-01
   0.89750   0.57762247E-01
   0.89850   0.46641801E-01
   0.89950   0.51385049E-01
   0.90050   0.63283399E-01
   0.90150   0.86918481E-01
   0.90250   0.89679301E-01
   0.90350   0.84164865E-01
   0.90450   0.79918951E-01
   0.90550   0.87853551E-01
   0.90650   0.12031715E+00
   0.90750   0.17711923E+00
   0.90850   0.23774610E+00
   0.90950   0.26292968E+00
   0.91050   0.25676507E+00
   0.91150   0.24922034E+00
   0.91250   0.24851499E+00
   0.91350   0.25224507E+00
   0.91450   0.25532976E+00
   0.91550   0.24505889E+00
   0.91650   0.22479129E+00
   0.91750   0.20158622E+00
   0.91850   0.18127967E+00
   0.91950   0.16795038E+00
   0.92050   0.16108255E+00
   0.92150   0.15813720E+00
   0.92250   0.15689261E+00
   0.92350   0.15611818E+00
   0.92450   0.15535195E+00
   0.92550   0.15435600E+00
   0.92650   0.15284349E+00
   0.92750   0.15078479E+00
   0.92850   0.14885686E+00
   0.92950   0.14802895E+00
   0.93050   0.14859751E+00
   0.93150   0.14993319E+00
   0.93250   0.15116081E+00
   0.93350   0.15210751E+00
   0.93450   0.15339571E+00
   0.93550   0.15576637E+00
   0.93650   0.15961824E+00
   0.93750   0.16495337E+00
   0.93850   0.17152166E+00
   0.93950   0.17901759E+00
   0.94050   0.18721984E+00
   0.94150   0.19600768E+00
   0.94250   0.20527062E+00
   0.94350   0.21480361E+00
   0.94450   0.22431478E+00
   0.94550   0.23372871E+00
   0.94650   0.24308756E+00
   0.94750   0.25224596E+00
   0.94850   0.26101285E+00
   0.94950   0.26904106E+00
   0.95050   0.27612528E+00
   0.95150   0.28234774E+00
   0.95250   0.28775400E+00
   0.95350   0.29225656E+00
   0.95450   0.29602745E+00
   0.95550   0.30019578E+00
   0.95650   0.30555490E+00
   0.95750   0.31146806E+00
   0.95850   0.31859413E+00
   0.95950   0.32713640E+00
   0.96050   0.33644199E+00
   0.96150   0.34606978E+00
   0.96250   0.35629249E+00
   0.96350   0.36763957E+00
   0.96450   0.38036829E+00
   0.96550   0.39417073E+00
   0.96650   0.40805835E+00
   0.96750   0.42020550E+00
   0.96850   0.42757040E+00
   0.96950   0.42788070E+00
   0.97050   0.43551210E+00
   0.97150   0.44922656E+00
   0.97250   0.45602804E+00
   0.97350   0.47031868E+00
   0.97450   0.49439645E+00
   0.97550   0.50605512E+00
   0.97650   0.51111734E+00
   0.97750   0.52744734E+00
   0.97850   0.56126869E+00
   0.97950   0.59769982E+00
   0.98050   0.63544190E+00
   0.98150   0.68274945E+00
   0.98250   0.72876990E+00
   0.98350   0.75614607E+00
   0.98450   0.76631325E+00
   0.98550   0.77517742E+00
   0.98650   0.78790873E+00
   0.98750   0.80245352E+00
   0.98850   0.81461012E+00
   0.98950   0.82159370E+00
   0.99050   0.82324225E+00
   0.99150   0.82041055E+00
   0.99250   0.81892747E+00
   0.99350   0.82278097E+00
   0.99450   0.82949954E+00
   0.99550   0.84199190E+00
   0.99650   0.88034898E+00
   0.99750   0.90103233E+00
   0.99850   0.89562452E+00
   0.99950   0.92601812E+00
