# Transmission, k-averaged
# Date: 2021-05-13
#   E [eV]           T [G0]
   0.00050   0.12446966E+00
   0.00150   0.70227452E-01
   0.00250   0.72538361E-01
   0.00350   0.21068074E-01
   0.00450   0.97154584E-02
   0.00550   0.71664229E-01
   0.00650   0.47356053E-02
   0.00750   0.18103935E-01
   0.00850   0.64791148E-02
   0.00950   0.33289497E-02
   0.01050   0.31686239E-01
   0.01150   0.62602130E-02
   0.01250   0.26286379E-02
   0.01350   0.56874948E-02
   0.01450   0.69308095E-01
   0.01550   0.44758921E-02
   0.01650   0.24835097E-02
   0.01750   0.39673294E-02
   0.01850   0.29526714E-01
   0.01950   0.13431541E-01
   0.02050   0.33894535E-02
   0.02150   0.25597815E-02
   0.02250   0.39784512E-02
   0.02350   0.17322175E-01
   0.02450   0.35219774E-01
   0.02550   0.55726091E-02
   0.02650   0.29400431E-02
   0.02750   0.28640407E-02
   0.02850   0.48480821E-02
   0.02950   0.19575352E-01
   0.03050   0.44652950E-01
   0.03150   0.71852058E-02
   0.03250   0.33674305E-02
   0.03350   0.27472698E-02
   0.03450   0.34691116E-02
   0.03550   0.75144940E-02
   0.03650   0.43642789E-01
   0.03750   0.21281451E-01
   0.03850   0.51866001E-02
   0.03950   0.28154063E-02
   0.04050   0.24227663E-02
   0.04150   0.31397799E-02
   0.04250   0.70650005E-02
   0.04350   0.36822472E-01
   0.04450   0.10725641E-01
   0.04550   0.32067462E-02
   0.04650   0.19447168E-02
   0.04750   0.16909625E-02
   0.04850   0.18945403E-02
   0.04950   0.25810106E-02
   0.05050   0.36943795E-02
   0.05150   0.40105870E-02
   0.05250   0.30793208E-02
   0.05350   0.22854325E-02
   0.05450   0.19405666E-02
   0.05550   0.19294622E-02
   0.05650   0.22016373E-02
   0.05750   0.27631901E-02
   0.05850   0.35353443E-02
   0.05950   0.41581010E-02
   0.06050   0.42551723E-02
   0.06150   0.39866092E-02
   0.06250   0.37215766E-02
   0.06350   0.36347504E-02
   0.06450   0.37563401E-02
   0.06550   0.40616887E-02
   0.06650   0.44823890E-02
   0.06750   0.48944377E-02
   0.06850   0.51560937E-02
   0.06950   0.52045709E-02
   0.07050   0.50983517E-02
   0.07150   0.49487576E-02
   0.07250   0.48413291E-02
   0.07350   0.48140120E-02
   0.07450   0.48677749E-02
   0.07550   0.49796277E-02
   0.07650   0.51121851E-02
   0.07750   0.52245236E-02
   0.07850   0.52862996E-02
   0.07950   0.52892105E-02
   0.08050   0.52477554E-02
   0.08150   0.51892446E-02
   0.08250   0.51411958E-02
   0.08350   0.51231897E-02
   0.08450   0.51443367E-02
   0.08550   0.52040913E-02
   0.08650   0.52944236E-02
   0.08750   0.54026511E-02
   0.08850   0.55147749E-02
   0.08950   0.56180866E-02
   0.09050   0.56971395E-02
   0.09150   0.56935046E-02
   0.09250   0.54230276E-02
   0.09350   0.49888422E-02
   0.09450   0.46084756E-02
   0.09550   0.42980383E-02
   0.09650   0.40398734E-02
   0.09750   0.38181024E-02
   0.09850   0.36212346E-02
   0.09950   0.34416837E-02
   0.10050   0.32750131E-02
   0.10150   0.31191153E-02
   0.10250   0.29733717E-02
   0.10350   0.28378875E-02
   0.10450   0.27128973E-02
   0.10550   0.25983907E-02
   0.10650   0.24939482E-02
   0.10750   0.23987421E-02
   0.10850   0.23116400E-02
   0.10950   0.22313574E-02
   0.11050   0.21566218E-02
   0.11150   0.20863125E-02
   0.11250   0.20195583E-02
   0.11350   0.19557823E-02
   0.11450   0.18946917E-02
   0.11550   0.18362250E-02
   0.11650   0.17804703E-02
   0.11750   0.17275767E-02
   0.11850   0.16776774E-02
   0.11950   0.16308323E-02
   0.12050   0.15869999E-02
   0.12150   0.15460321E-02
   0.12250   0.15076930E-02
   0.12350   0.14716877E-02
   0.12450   0.14377009E-02
   0.12550   0.14054336E-02
   0.12650   0.13746332E-02
   0.12750   0.13451144E-02
   0.12850   0.13167670E-02
   0.12950   0.12895510E-02
   0.13050   0.12634824E-02
   0.13150   0.12386115E-02
   0.13250   0.12150006E-02
   0.13350   0.11927020E-02
   0.13450   0.11717416E-02
   0.13550   0.11521097E-02
   0.13650   0.11337578E-02
   0.13750   0.11166028E-02
   0.13850   0.11005360E-02
   0.13950   0.10854350E-02
   0.14050   0.10711775E-02
   0.14150   0.10576533E-02
   0.14250   0.10447742E-02
   0.14350   0.10324797E-02
   0.14450   0.10207383E-02
   0.14550   0.10095441E-02
   0.14650   0.99891005E-03
   0.14750   0.98885910E-03
   0.14850   0.97941398E-03
   0.14950   0.97058824E-03
   0.15050   0.96237921E-03
   0.15150   0.95476350E-03
   0.15250   0.94769598E-03
   0.15350   0.94111194E-03
   0.15450   0.93493162E-03
   0.15550   0.92906732E-03
   0.15650   0.92343101E-03
   0.15750   0.91794203E-03
   0.15850   0.91253372E-03
   0.15950   0.90715772E-03
   0.16050   0.90178568E-03
   0.16150   0.89640805E-03
   0.16250   0.89103001E-03
   0.16350   0.88566507E-03
   0.16450   0.88032678E-03
   0.16550   0.87501964E-03
   0.16650   0.86972880E-03
   0.16750   0.86440862E-03
   0.16850   0.85896713E-03
   0.16950   0.85324090E-03
   0.17050   0.84694533E-03
   0.17150   0.83955994E-03
   0.17250   0.83002780E-03
   0.17350   0.81583625E-03
   0.17450   0.78965334E-03
   0.17550   0.72993565E-03
   0.17650   0.63634111E-03
   0.17750   0.55772666E-03
   0.17850   0.49863762E-03
   0.17950   0.45256253E-03
   0.18050   0.41531405E-03
   0.18150   0.38441026E-03
   0.18250   0.35829985E-03
   0.18350   0.33595876E-03
   0.18450   0.31668157E-03
   0.18550   0.29996704E-03
   0.18650   0.28545171E-03
   0.18750   0.27286960E-03
   0.18850   0.26202630E-03
   0.18950   0.25278225E-03
   0.19050   0.24504133E-03
   0.19150   0.23874293E-03
   0.19250   0.23385648E-03
   0.19350   0.23037770E-03
   0.19450   0.22832582E-03
   0.19550   0.22774171E-03
   0.19650   0.22868651E-03
   0.19750   0.23124067E-03
   0.19850   0.23550306E-03
   0.19950   0.24159011E-03
   0.20050   0.24963458E-03
   0.20150   0.25978393E-03
   0.20250   0.27219779E-03
   0.20350   0.28704409E-03
   0.20450   0.30449376E-03
   0.20550   0.32471286E-03
   0.20650   0.34785175E-03
   0.20750   0.37403021E-03
   0.20850   0.40331692E-03
   0.20950   0.43570198E-03
   0.21050   0.47105909E-03
   0.21150   0.50909427E-03
   0.21250   0.54927345E-03
   0.21350   0.59071550E-03
   0.21450   0.63201756E-03
   0.21550   0.67091704E-03
   0.21650   0.70347829E-03
   0.21750   0.72268257E-03
   0.21850   0.72678656E-03
   0.21950   0.72609959E-03
   0.22050   0.72495401E-03
   0.22150   0.72448852E-03
   0.22250   0.72529365E-03
   0.22350   0.72781550E-03
   0.22450   0.73245476E-03
   0.22550   0.73961244E-03
   0.22650   0.74972439E-03
   0.22750   0.76329865E-03
   0.22850   0.78096293E-03
   0.22950   0.80353336E-03
   0.23050   0.83211594E-03
   0.23150   0.86824427E-03
   0.23250   0.91392495E-03
   0.23350   0.97020721E-03
   0.23450   0.10224127E-02
   0.23550   0.10202312E-02
   0.23650   0.98403718E-03
   0.23750   0.94568997E-03
   0.23850   0.91111509E-03
   0.23950   0.88071713E-03
   0.24050   0.85401686E-03
   0.24150   0.83044945E-03
   0.24250   0.80951146E-03
   0.24350   0.79077919E-03
   0.24450   0.77389955E-03
   0.24550   0.75857778E-03
   0.24650   0.74456620E-03
   0.24750   0.73165563E-03
   0.24850   0.71966846E-03
   0.24950   0.70845359E-03
   0.25050   0.69788232E-03
   0.25150   0.68784546E-03
   0.25250   0.67825068E-03
   0.25350   0.66902098E-03
   0.25450   0.66009269E-03
   0.25550   0.65141480E-03
   0.25650   0.64294739E-03
   0.25750   0.63466106E-03
   0.25850   0.62653597E-03
   0.25950   0.61856094E-03
   0.26050   0.61073265E-03
   0.26150   0.60305465E-03
   0.26250   0.59553661E-03
   0.26350   0.58819307E-03
   0.26450   0.58104226E-03
   0.26550   0.57410519E-03
   0.26650   0.56740415E-03
   0.26750   0.56096166E-03
   0.26850   0.55479922E-03
   0.26950   0.54893619E-03
   0.27050   0.54338865E-03
   0.27150   0.53816900E-03
   0.27250   0.53328479E-03
   0.27350   0.52873878E-03
   0.27450   0.52452850E-03
   0.27550   0.52064634E-03
   0.27650   0.51708019E-03
   0.27750   0.51381340E-03
   0.27850   0.51082618E-03
   0.27950   0.50809584E-03
   0.28050   0.50559797E-03
   0.28150   0.50330756E-03
   0.28250   0.50119963E-03
   0.28350   0.49925066E-03
   0.28450   0.49743883E-03
   0.28550   0.49574539E-03
   0.28650   0.49415469E-03
   0.28750   0.49265515E-03
   0.28850   0.49123861E-03
   0.28950   0.48990076E-03
   0.29050   0.48863923E-03
   0.29150   0.48745103E-03
   0.29250   0.48632594E-03
   0.29350   0.48523134E-03
   0.29450   0.48407525E-03
   0.29550   0.48260525E-03
   0.29650   0.48009033E-03
   0.29750   0.47410079E-03
   0.29850   0.45538755E-03
   0.29950   0.40882410E-03
   0.30050   0.35781969E-03
   0.30150   0.31734296E-03
   0.30250   0.28525695E-03
   0.30350   0.25902624E-03
   0.30450   0.23702301E-03
   0.30550   0.21820195E-03
   0.30650   0.20186076E-03
   0.30750   0.18750614E-03
   0.30850   0.17477840E-03
   0.30950   0.16340705E-03
   0.31050   0.15318349E-03
   0.31150   0.14394325E-03
   0.31250   0.13555441E-03
   0.31350   0.12790947E-03
   0.31450   0.12091967E-03
   0.31550   0.11451088E-03
   0.31650   0.10862062E-03
   0.31750   0.10319576E-03
   0.31850   0.98190802E-04
   0.31950   0.93566581E-04
   0.32050   0.89289184E-04
   0.32150   0.85329186E-04
   0.32250   0.81660961E-04
   0.32350   0.78262201E-04
   0.32450   0.75113509E-04
   0.32550   0.72198069E-04
   0.32650   0.69501402E-04
   0.32750   0.67011155E-04
   0.32850   0.64717002E-04
   0.32950   0.62610525E-04
   0.33050   0.60685175E-04
   0.33150   0.58936264E-04
   0.33250   0.57361023E-04
   0.33350   0.55958666E-04
   0.33450   0.54730543E-04
   0.33550   0.53680324E-04
   0.33650   0.52814241E-04
   0.33750   0.52141400E-04
   0.33850   0.51674175E-04
   0.33950   0.51428637E-04
   0.34050   0.51425097E-04
   0.34150   0.51688676E-04
   0.34250   0.52249903E-04
   0.34350   0.53145301E-04
   0.34450   0.54417771E-04
   0.34550   0.56116674E-04
   0.34650   0.58297133E-04
   0.34750   0.61018058E-04
   0.34850   0.64337881E-04
   0.34950   0.68306515E-04
   0.35050   0.72951108E-04
   0.35150   0.78252124E-04
   0.35250   0.84104533E-04
   0.35350   0.90257323E-04
   0.35450   0.96223564E-04
   0.35550   0.10115863E-03
   0.35650   0.10374063E-03
   0.35750   0.10226472E-03
   0.35850   0.95847303E-04
   0.35950   0.88454472E-04
   0.36050   0.87081673E-04
   0.36150   0.79660138E-04
   0.36250   0.70132584E-04
   0.36350   0.65366476E-04
   0.36450   0.62293257E-04
   0.36550   0.60611081E-04
   0.36650   0.59827700E-04
   0.36750   0.59687860E-04
   0.36850   0.60079699E-04
   0.36950   0.60959414E-04
   0.37050   0.62320643E-04
   0.37150   0.64183390E-04
   0.37250   0.66591434E-04
   0.37350   0.69614580E-04
   0.37450   0.73354815E-04
   0.37550   0.77957608E-04
   0.37650   0.83630715E-04
   0.37750   0.90675596E-04
   0.37850   0.99539386E-04
   0.37950   0.11088911E-03
   0.38050   0.12558642E-03
   0.38150   0.14302263E-03
   0.38250   0.15236519E-03
   0.38350   0.14901407E-03
   0.38450   0.14305316E-03
   0.38550   0.13760218E-03
   0.38650   0.13316216E-03
   0.38750   0.12979087E-03
   0.38850   0.12750273E-03
   0.38950   0.12636672E-03
   0.39050   0.12656140E-03
   0.39150   0.12845686E-03
   0.39250   0.13278920E-03
   0.39350   0.14107440E-03
   0.39450   0.15657960E-03
   0.39550   0.18392564E-03
   0.39650   0.15593234E-03
   0.39750   0.28660646E-04
   0.39850   0.54328859E-04
   0.39950   0.94297808E-04
   0.40050   0.16502380E-03
   0.40150   0.31905450E-03
   0.40250   0.46864164E-03
   0.40350   0.38264200E-03
   0.40450   0.20692803E-03
   0.40550   0.13169958E-03
   0.40650   0.10111914E-03
   0.40750   0.84725965E-04
   0.40850   0.72768518E-04
   0.40950   0.62886313E-04
   0.41050   0.59005615E-04
   0.41150   0.79359867E-04
   0.41250   0.24819421E-03
   0.41350   0.29876735E-03
   0.41450   0.44428503E-04
   0.41550   0.63228392E-04
   0.41650   0.81148821E-04
   0.41750   0.99388613E-04
   0.41850   0.31619580E-03
   0.41950   0.72060102E-02
   0.42050   0.28316490E-02
   0.42150   0.37987607E-02
   0.42250   0.37689433E-02
   0.42350   0.30805997E-02
   0.42450   0.23962820E-02
   0.42550   0.19488899E-02
   0.42650   0.17104400E-02
   0.42750   0.15671165E-02
   0.42850   0.14948931E-02
   0.42950   0.14732635E-02
   0.43050   0.14559405E-02
   0.43150   0.14220166E-02
   0.43250   0.13782568E-02
   0.43350   0.13347260E-02
   0.43450   0.12953968E-02
   0.43550   0.12604233E-02
   0.43650   0.12287953E-02
   0.43750   0.11994260E-02
   0.43850   0.11716731E-02
   0.43950   0.11454499E-02
   0.44050   0.11209477E-02
   0.44150   0.10982936E-02
   0.44250   0.10773989E-02
   0.44350   0.10580025E-02
   0.44450   0.10397853E-02
   0.44550   0.10224446E-02
   0.44650   0.10057024E-02
   0.44750   0.98930032E-03
   0.44850   0.97301730E-03
   0.44950   0.95670944E-03
   0.45050   0.94033917E-03
   0.45150   0.92397048E-03
   0.45250   0.90772699E-03
   0.45350   0.89173100E-03
   0.45450   0.87605254E-03
   0.45550   0.86068700E-03
   0.45650   0.84556697E-03
   0.45750   0.83059579E-03
   0.45850   0.81568683E-03
   0.45950   0.80079259E-03
   0.46050   0.78591600E-03
   0.46150   0.77110273E-03
   0.46250   0.75642014E-03
   0.46350   0.74193231E-03
   0.46450   0.72767952E-03
   0.46550   0.71366783E-03
   0.46650   0.69987029E-03
   0.46750   0.68623701E-03
   0.46850   0.67270937E-03
   0.46950   0.65923453E-03
   0.47050   0.64577564E-03
   0.47150   0.63231675E-03
   0.47250   0.61886210E-03
   0.47350   0.60543080E-03
   0.47450   0.59204880E-03
   0.47550   0.57874050E-03
   0.47650   0.56552177E-03
   0.47750   0.55239629E-03
   0.47850   0.53935481E-03
   0.47950   0.52637747E-03
   0.48050   0.51343895E-03
   0.48150   0.50051435E-03
   0.48250   0.48758628E-03
   0.48350   0.47465035E-03
   0.48450   0.46172005E-03
   0.48550   0.44882915E-03
   0.48650   0.43603306E-03
   0.48750   0.42341038E-03
   0.48850   0.41106637E-03
   0.48950   0.39914262E-03
   0.49050   0.38783633E-03
   0.49150   0.37743535E-03
   0.49250   0.36837708E-03
   0.49350   0.36134440E-03
   0.49450   0.35742202E-03
   0.49550   0.35835608E-03
   0.49650   0.36701732E-03
   0.49750   0.38838238E-03
   0.49850   0.43079752E-03
   0.49950   0.49813505E-03
   0.50050   0.58837421E-03
   0.50150   0.69387141E-03
   0.50250   0.78953238E-03
   0.50350   0.84358989E-03
   0.50450   0.84811385E-03
   0.50550   0.82153524E-03
   0.50650   0.78324653E-03
   0.50750   0.74385904E-03
   0.50850   0.70856459E-03
   0.50950   0.67993382E-03
   0.51050   0.65914175E-03
   0.51150   0.64669579E-03
   0.51250   0.64290699E-03
   0.51350   0.64816751E-03
   0.51450   0.66312042E-03
   0.51550   0.68879843E-03
   0.51650   0.72679628E-03
   0.51750   0.77952415E-03
   0.51850   0.85049646E-03
   0.51950   0.94369025E-03
   0.52050   0.10522169E-02
   0.52150   0.11230282E-02
   0.52250   0.11544371E-02
   0.52350   0.11829231E-02
   0.52450   0.12160857E-02
   0.52550   0.12543570E-02
   0.52650   0.12969591E-02
   0.52750   0.13419762E-02
   0.52850   0.13843147E-02
   0.52950   0.14118365E-02
   0.53050   0.14033424E-02
   0.53150   0.13408973E-02
   0.53250   0.12380434E-02
   0.53350   0.11273586E-02
   0.53450   0.10322806E-02
   0.53550   0.95783954E-03
   0.53650   0.89159550E-03
   0.53750   0.82871568E-03
   0.53850   0.76922803E-03
   0.53950   0.71401399E-03
   0.54050   0.66355901E-03
   0.54150   0.61787752E-03
   0.54250   0.57669333E-03
   0.54350   0.53959916E-03
   0.54450   0.50615356E-03
   0.54550   0.47592953E-03
   0.54650   0.44853537E-03
   0.54750   0.42362045E-03
   0.54850   0.40087351E-03
   0.54950   0.38001750E-03
   0.55050   0.36080359E-03
   0.55150   0.34300657E-03
   0.55250   0.32642978E-03
   0.55350   0.31095179E-03
   0.55450   0.29675933E-03
   0.55550   0.28539746E-03
   0.55650   0.28281234E-03
   0.55750   0.28955354E-03
   0.55850   0.28352000E-03
   0.55950   0.27290941E-03
   0.56050   0.26299892E-03
   0.56150   0.25436885E-03
   0.56250   0.24709044E-03
   0.56350   0.24116552E-03
   0.56450   0.23672087E-03
   0.56550   0.23419125E-03
   0.56650   0.23466293E-03
   0.56750   0.23936987E-03
   0.56850   0.26760751E-03
   0.56950   0.42054072E-03
   0.57050   0.22879754E-03
   0.57150   0.22151553E-03
   0.57250   0.22313472E-03
   0.57350   0.22725841E-03
   0.57450   0.23073785E-03
   0.57550   0.23267757E-03
   0.57650   0.25853960E-03
   0.57750   0.32436789E-03
   0.57850   0.44619461E-03
   0.57950   0.57739392E-03
   0.58050   0.33461530E-03
   0.58150   0.64324867E-02
   0.58250   0.22163834E-01
   0.58350   0.40381484E-01
   0.58450   0.19177997E-01
   0.58550   0.10824678E-01
   0.58650   0.99799670E-02
   0.58750   0.84988289E-02
   0.58850   0.78113531E-02
   0.58950   0.57389550E-02
   0.59050   0.53413943E-02
   0.59150   0.56199324E-02
   0.59250   0.49408181E-02
   0.59350   0.50886637E-02
   0.59450   0.52205175E-02
   0.59550   0.45830500E-02
   0.59650   0.41156239E-02
   0.59750   0.39144908E-02
   0.59850   0.36101954E-02
   0.59950   0.32480496E-02
   0.60050   0.30317137E-02
   0.60150   0.29222171E-02
   0.60250   0.27723180E-02
   0.60350   0.25531964E-02
   0.60450   0.23598291E-02
   0.60550   0.22489198E-02
   0.60650   0.22021148E-02
   0.60750   0.21730396E-02
   0.60850   0.21375401E-02
   0.60950   0.21088796E-02
   0.61050   0.21083434E-02
   0.61150   0.21379592E-02
   0.61250   0.21783877E-02
   0.61350   0.22031181E-02
   0.61450   0.21974870E-02
   0.61550   0.21655895E-02
   0.61650   0.21160860E-02
   0.61750   0.20289777E-02
   0.61850   0.18276930E-02
   0.61950   0.15796359E-02
   0.62050   0.13763239E-02
   0.62150   0.12191203E-02
   0.62250   0.11024002E-02
   0.62350   0.10208074E-02
   0.62450   0.96692715E-03
   0.62550   0.93537150E-03
   0.62650   0.92147361E-03
   0.62750   0.92107657E-03
   0.62850   0.93083607E-03
   0.62950   0.94836781E-03
   0.63050   0.97208907E-03
   0.63150   0.10008090E-02
   0.63250   0.10332628E-02
   0.63350   0.10677981E-02
   0.63450   0.11023389E-02
   0.63550   0.11346329E-02
   0.63650   0.11626616E-02
   0.63750   0.11850176E-02
   0.63850   0.12010640E-02
   0.63950   0.12108223E-02
   0.64050   0.12146792E-02
   0.64150   0.12130758E-02
   0.64250   0.12063163E-02
   0.64350   0.11945452E-02
   0.64450   0.11778602E-02
   0.64550   0.11564761E-02
   0.64650   0.11308473E-02
   0.64750   0.11016940E-02
   0.64850   0.10699268E-02
   0.64950   0.10365139E-02
   0.65050   0.10023509E-02
   0.65150   0.96817815E-03
   0.65250   0.93456072E-03
   0.65350   0.90191700E-03
   0.65450   0.87057031E-03
   0.65550   0.84079819E-03
   0.65650   0.81286242E-03
   0.65750   0.78701589E-03
   0.65850   0.76349149E-03
   0.65950   0.74248505E-03
   0.66050   0.72414172E-03
   0.66150   0.70855254E-03
   0.66250   0.69576217E-03
   0.66350   0.68578351E-03
   0.66450   0.67861495E-03
   0.66550   0.67425618E-03
   0.66650   0.67271874E-03
   0.66750   0.67403226E-03
   0.66850   0.67824608E-03
   0.66950   0.68542926E-03
   0.67050   0.69566927E-03
   0.67150   0.70907327E-03
   0.67250   0.72577101E-03
   0.67350   0.74592204E-03
   0.67450   0.76972699E-03
   0.67550   0.79744443E-03
   0.67650   0.82941464E-03
   0.67750   0.86609164E-03
   0.67850   0.90808788E-03
   0.67950   0.95623714E-03
   0.68050   0.10116859E-02
   0.68150   0.10760288E-02
   0.68250   0.11515118E-02
   0.68350   0.12413134E-02
   0.68450   0.13497616E-02
   0.68550   0.14810658E-02
   0.68650   0.16245072E-02
   0.68750   0.16891505E-02
   0.68850   0.16884629E-02
   0.68950   0.21515836E-02
   0.69050   0.42159613E-02
   0.69150   0.17522549E-02
   0.69250   0.13506599E-02
   0.69350   0.12916413E-02
   0.69450   0.13137339E-02
   0.69550   0.15542444E-02
   0.69650   0.46201819E-02
   0.69750   0.97129708E-02
   0.69850   0.73646512E-02
   0.69950   0.12018705E-01
   0.70050   0.19587843E-01
   0.70150   0.15062014E-01
   0.70250   0.18246146E-01
   0.70350   0.30477906E-01
   0.70450   0.36859974E-01
   0.70550   0.15097061E-01
   0.70650   0.11089385E-01
   0.70750   0.84834266E-02
   0.70850   0.57834103E-02
   0.70950   0.54153143E-02
   0.71050   0.53218999E-02
   0.71150   0.53222948E-02
   0.71250   0.54668002E-02
   0.71350   0.55822423E-02
   0.71450   0.56083533E-02
   0.71550   0.56232205E-02
   0.71650   0.56144982E-02
   0.71750   0.55008838E-02
   0.71850   0.52777096E-02
   0.71950   0.50192401E-02
   0.72050   0.47653364E-02
   0.72150   0.45153871E-02
   0.72250   0.42685219E-02
   0.72350   0.40305415E-02
   0.72450   0.38009956E-02
   0.72550   0.35701187E-02
   0.72650   0.33302545E-02
   0.72750   0.30866445E-02
   0.72850   0.28546085E-02
   0.72950   0.26479228E-02
   0.73050   0.24722910E-02
   0.73150   0.23278424E-02
   0.73250   0.22154809E-02
   0.73350   0.21287755E-02
   0.73450   0.20562606E-02
   0.73550   0.19971849E-02
   0.73650   0.19535238E-02
   0.73750   0.19273011E-02
   0.73850   0.19195719E-02
   0.73950   0.19297893E-02
   0.74050   0.19556626E-02
   0.74150   0.19935358E-02
   0.74250   0.20391904E-02
   0.74350   0.20887977E-02
   0.74450   0.21396391E-02
   0.74550   0.21903331E-02
   0.74650   0.22405977E-02
   0.74750   0.22907816E-02
   0.74850   0.23413843E-02
   0.74950   0.23926815E-02
   0.75050   0.24444913E-02
   0.75150   0.24961038E-02
   0.75250   0.25463935E-02
   0.75350   0.25940936E-02
   0.75450   0.26381451E-02
   0.75550   0.26779983E-02
   0.75650   0.27137396E-02
   0.75750   0.27459993E-02
   0.75850   0.27756833E-02
   0.75950   0.28036493E-02
   0.76050   0.28304439E-02
   0.76150   0.28561899E-02
   0.76250   0.28806394E-02
   0.76350   0.29033637E-02
   0.76450   0.29240004E-02
   0.76550   0.29424757E-02
   0.76650   0.29591296E-02
   0.76750   0.29747095E-02
   0.76850   0.29902586E-02
   0.76950   0.30069435E-02
   0.77050   0.30258957E-02
   0.77150   0.30481168E-02
   0.77250   0.30744795E-02
   0.77350   0.31058267E-02
   0.77450   0.31431466E-02
   0.77550   0.31878026E-02
   0.77650   0.32417839E-02
   0.77750   0.33079791E-02
   0.77850   0.33904712E-02
   0.77950   0.34947693E-02
   0.78050   0.36268171E-02
   0.78150   0.37802747E-02
   0.78250   0.38890601E-02
   0.78350   0.39616907E-02
   0.78450   0.41001830E-02
   0.78550   0.43973066E-02
   0.78650   0.52982159E-02
   0.78750   0.15163278E-01
   0.78850   0.69007371E-02
   0.78950   0.46584615E-02
   0.79050   0.45271893E-02
   0.79150   0.47335401E-02
   0.79250   0.51791673E-02
   0.79350   0.60839318E-02
   0.79450   0.82489867E-02
   0.79550   0.13231387E-01
   0.79650   0.17078510E-01
   0.79750   0.21334903E-01
   0.79850   0.53401668E-01
   0.79950   0.43963667E-01
   0.80050   0.35362814E-01
   0.80150   0.41256357E-01
   0.80250   0.40675309E-01
   0.80350   0.36612473E-01
   0.80450   0.22395825E-01
   0.80550   0.18845996E-01
   0.80650   0.19988270E-01
   0.80750   0.24184410E-01
   0.80850   0.27877860E-01
   0.80950   0.28611694E-01
   0.81050   0.29758124E-01
   0.81150   0.33177130E-01
   0.81250   0.34556296E-01
   0.81350   0.29971395E-01
   0.81450   0.24576552E-01
   0.81550   0.21824954E-01
   0.81650   0.21671979E-01
   0.81750   0.22702144E-01
   0.81850   0.22642110E-01
   0.81950   0.20580806E-01
   0.82050   0.17970873E-01
   0.82150   0.16136024E-01
   0.82250   0.15351233E-01
   0.82350   0.15360825E-01
   0.82450   0.15773976E-01
   0.82550   0.16384890E-01
   0.82650   0.17230585E-01
   0.82750   0.18048368E-01
   0.82850   0.18726721E-01
   0.82950   0.19164817E-01
   0.83050   0.19233644E-01
   0.83150   0.18939814E-01
   0.83250   0.18452276E-01
   0.83350   0.17973715E-01
   0.83450   0.17619580E-01
   0.83550   0.17395526E-01
   0.83650   0.17241852E-01
   0.83750   0.17096344E-01
   0.83850   0.16945373E-01
   0.83950   0.16839428E-01
   0.84050   0.16865797E-01
   0.84150   0.17094830E-01
   0.84250   0.17491465E-01
   0.84350   0.17782366E-01
   0.84450   0.18014828E-01
   0.84550   0.18413672E-01
   0.84650   0.18941391E-01
   0.84750   0.19510072E-01
   0.84850   0.19952530E-01
   0.84950   0.20321131E-01
   0.85050   0.20718059E-01
   0.85150   0.21141229E-01
   0.85250   0.21563064E-01
   0.85350   0.21953361E-01
   0.85450   0.22288185E-01
   0.85550   0.22554837E-01
   0.85650   0.22753179E-01
   0.85750   0.22893652E-01
   0.85850   0.22993432E-01
   0.85950   0.23072463E-01
   0.86050   0.23150550E-01
   0.86150   0.23245987E-01
   0.86250   0.23375625E-01
   0.86350   0.23556422E-01
   0.86450   0.23808997E-01
   0.86550   0.24165254E-01
   0.86650   0.24686502E-01
   0.86750   0.25513981E-01
   0.86850   0.27038973E-01
   0.86950   0.30520497E-01
   0.87050   0.36088508E-01
   0.87150   0.29114148E-01
   0.87250   0.26174905E-01
   0.87350   0.26457246E-01
   0.87450   0.28037317E-01
   0.87550   0.31653617E-01
   0.87650   0.43040454E-01
   0.87750   0.61782822E-01
   0.87850   0.45729503E-01
   0.87950   0.52416474E-01
   0.88050   0.72466508E-01
   0.88150   0.70039913E-01
   0.88250   0.52779149E-01
   0.88350   0.53264387E-01
   0.88450   0.59243046E-01
   0.88550   0.66077776E-01
   0.88650   0.68612687E-01
   0.88750   0.65219671E-01
   0.88850   0.63099734E-01
   0.88950   0.63146323E-01
   0.89050   0.58682557E-01
   0.89150   0.49783576E-01
   0.89250   0.43940045E-01
   0.89350   0.42795911E-01
   0.89450   0.42549904E-01
   0.89550   0.43097682E-01
   0.89650   0.45233905E-01
   0.89750   0.48350174E-01
   0.89850   0.51196840E-01
   0.89950   0.54038912E-01
   0.90050   0.58731288E-01
   0.90150   0.66228390E-01
   0.90250   0.73463231E-01
   0.90350   0.78574464E-01
   0.90450   0.80796927E-01
   0.90550   0.80919489E-01
   0.90650   0.80748051E-01
   0.90750   0.81445441E-01
   0.90850   0.83343953E-01
   0.90950   0.86420879E-01
   0.91050   0.90631478E-01
   0.91150   0.95971100E-01
   0.91250   0.10238729E+00
   0.91350   0.10975018E+00
   0.91450   0.11797635E+00
   0.91550   0.12715682E+00
   0.91650   0.13744241E+00
   0.91750   0.14861026E+00
   0.91850   0.15954420E+00
   0.91950   0.16823176E+00
   0.92050   0.17282847E+00
   0.92150   0.17304905E+00
   0.92250   0.17025994E+00
   0.92350   0.16632578E+00
   0.92450   0.16265786E+00
   0.92550   0.16002436E+00
   0.92650   0.15875115E+00
   0.92750   0.15894821E+00
   0.92850   0.16064763E+00
   0.92950   0.16386037E+00
   0.93050   0.16858061E+00
   0.93150   0.17475885E+00
   0.93250   0.18225875E+00
   0.93350   0.19082718E+00
   0.93450   0.20028001E+00
   0.93550   0.21598458E+00
   0.93650   0.22571614E+00
   0.93750   0.22997007E+00
   0.93850   0.23545645E+00
   0.93950   0.23970328E+00
   0.94050   0.24244681E+00
   0.94150   0.24424519E+00
   0.94250   0.24657229E+00
   0.94350   0.25250709E+00
   0.94450   0.26363844E+00
   0.94550   0.26525432E+00
   0.94650   0.26457536E+00
   0.94750   0.27101266E+00
   0.94850   0.28362441E+00
   0.94950   0.29760551E+00
   0.95050   0.30967009E+00
   0.95150   0.32045585E+00
   0.95250   0.33129352E+00
   0.95350   0.34280658E+00
   0.95450   0.35490763E+00
   0.95550   0.36657724E+00
   0.95650   0.37684473E+00
   0.95750   0.38710245E+00
   0.95850   0.39798805E+00
   0.95950   0.40927979E+00
   0.96050   0.42298797E+00
   0.96150   0.44233432E+00
   0.96250   0.46638894E+00
   0.96350   0.49050319E+00
   0.96450   0.51396918E+00
   0.96550   0.53942859E+00
   0.96650   0.56631637E+00
   0.96750   0.59001809E+00
   0.96850   0.60650766E+00
   0.96950   0.61714178E+00
   0.97050   0.62551165E+00
   0.97150   0.63415164E+00
   0.97250   0.64476770E+00
   0.97350   0.65864849E+00
   0.97450   0.67614377E+00
   0.97550   0.69598508E+00
   0.97650   0.71699959E+00
   0.97750   0.73866165E+00
   0.97850   0.75944781E+00
   0.97950   0.77778447E+00
   0.98050   0.79230011E+00
   0.98150   0.80167800E+00
   0.98250   0.80459982E+00
   0.98350   0.80059457E+00
   0.98450   0.79135728E+00
   0.98550   0.78053010E+00
   0.98650   0.77205020E+00
   0.98750   0.76880550E+00
   0.98850   0.77147484E+00
   0.98950   0.77896267E+00
   0.99050   0.78954744E+00
   0.99150   0.80228090E+00
   0.99250   0.81616676E+00
   0.99350   0.82986426E+00
   0.99450   0.84221303E+00
   0.99550   0.85401940E+00
   0.99650   0.86749494E+00
   0.99750   0.88290173E+00
   0.99850   0.89468974E+00
   0.99950   0.89526010E+00
