# Transmission, k-averaged
# Date: 2021-05-13
#   E [eV]           T [G0]
   0.00050   0.29798832E-01
   0.00150   0.88986458E-03
   0.00250   0.11236627E-02
   0.00350   0.36585806E-02
   0.00450   0.54105977E-02
   0.00550   0.58952067E-02
   0.00650   0.11286230E-01
   0.00750   0.17144104E-01
   0.00850   0.79023149E-02
   0.00950   0.29492687E-01
   0.01050   0.10139822E-01
   0.01150   0.12400638E-01
   0.01250   0.48967898E-01
   0.01350   0.77946871E-02
   0.01450   0.15412502E-01
   0.01550   0.80136813E-01
   0.01650   0.87324549E-02
   0.01750   0.83237588E-02
   0.01850   0.49728651E-01
   0.01950   0.31414270E-01
   0.02050   0.75684157E-02
   0.02150   0.74171275E-02
   0.02250   0.24945183E-01
   0.02350   0.12100182E+00
   0.02450   0.11352112E-01
   0.02550   0.62627057E-02
   0.02650   0.80198944E-02
   0.02750   0.28824458E-01
   0.02850   0.15891568E+00
   0.02950   0.14097966E-01
   0.03050   0.67176116E-02
   0.03150   0.65611652E-02
   0.03250   0.12254870E-01
   0.03350   0.76019153E-01
   0.03450   0.74002355E-01
   0.03550   0.13313482E-01
   0.03650   0.75186891E-02
   0.03750   0.75434009E-02
   0.03850   0.12858311E-01
   0.03950   0.51183641E-01
   0.04050   0.26477706E+00
   0.04150   0.32274220E-01
   0.04250   0.16142672E-01
   0.04350   0.16694399E-01
   0.04450   0.34717761E-01
   0.04550   0.14900528E+00
   0.04650   0.60329962E+00
   0.04750   0.64579338E+00
   0.04850   0.39048752E+00
   0.04950   0.29055569E+00
   0.05050   0.26927182E+00
   0.05150   0.29810062E+00
   0.05250   0.38216400E+00
   0.05350   0.54213786E+00
   0.05450   0.75894761E+00
   0.05550   0.86284781E+00
   0.05650   0.75511825E+00
   0.05750   0.60397589E+00
   0.05850   0.50879264E+00
   0.05950   0.47326437E+00
   0.06050   0.48814216E+00
   0.06150   0.55102473E+00
   0.06250   0.66051960E+00
   0.06350   0.79375613E+00
   0.06450   0.88205510E+00
   0.06550   0.86238503E+00
   0.06650   0.76710999E+00
   0.06750   0.66927880E+00
   0.06850   0.60533309E+00
   0.06950   0.58180690E+00
   0.07050   0.59712982E+00
   0.07150   0.64912760E+00
   0.07250   0.73188233E+00
   0.07350   0.82546794E+00
   0.07450   0.88977844E+00
   0.07550   0.88826919E+00
   0.07650   0.82747263E+00
   0.07750   0.74740577E+00
   0.07850   0.68139905E+00
   0.07950   0.64359325E+00
   0.08050   0.63716209E+00
   0.08150   0.66170537E+00
   0.08250   0.71470714E+00
   0.08350   0.78777742E+00
   0.08450   0.86016726E+00
   0.08550   0.89964443E+00
   0.08650   0.88345385E+00
   0.08750   0.82121837E+00
   0.08850   0.74449748E+00
   0.08950   0.68036133E+00
   0.09050   0.64298892E+00
   0.09150   0.64131695E+00
   0.09250   0.68640250E+00
   0.09350   0.76262820E+00
   0.09450   0.83960426E+00
   0.09550   0.89359164E+00
   0.09650   0.90928984E+00
   0.09750   0.88891578E+00
   0.09850   0.84889555E+00
   0.09950   0.80739468E+00
   0.10050   0.77651924E+00
   0.10150   0.76189291E+00
   0.10250   0.76487726E+00
   0.10350   0.78417546E+00
   0.10450   0.81617701E+00
   0.10550   0.85461789E+00
   0.10650   0.89072347E+00
   0.10750   0.91512644E+00
   0.10850   0.92158204E+00
   0.10950   0.91007638E+00
   0.11050   0.88652748E+00
   0.11150   0.85943127E+00
   0.11250   0.83639336E+00
   0.11350   0.82246917E+00
   0.11450   0.82005394E+00
   0.11550   0.82928449E+00
   0.11650   0.84829444E+00
   0.11750   0.87326336E+00
   0.11850   0.89865476E+00
   0.11950   0.91821629E+00
   0.12050   0.92691731E+00
   0.12150   0.92300677E+00
   0.12250   0.90875292E+00
   0.12350   0.88926548E+00
   0.12450   0.87033999E+00
   0.12550   0.85669911E+00
   0.12650   0.85118800E+00
   0.12750   0.85465330E+00
   0.12850   0.86606443E+00
   0.12950   0.88269836E+00
   0.13050   0.90052867E+00
   0.13150   0.91507804E+00
   0.13250   0.92274761E+00
   0.13350   0.92210096E+00
   0.13450   0.91431880E+00
   0.13550   0.90251046E+00
   0.13650   0.89037919E+00
   0.13750   0.88102520E+00
   0.13850   0.87630683E+00
   0.13950   0.87672001E+00
   0.14050   0.88158381E+00
   0.14150   0.88937521E+00
   0.14250   0.89814842E+00
   0.14350   0.90599418E+00
   0.14450   0.91145855E+00
   0.14550   0.91380894E+00
   0.14650   0.91307330E+00
   0.14750   0.90987241E+00
   0.14850   0.90514904E+00
   0.14950   0.89991128E+00
   0.15050   0.89506495E+00
   0.15150   0.89134926E+00
   0.15250   0.88934517E+00
   0.15350   0.88950926E+00
   0.15450   0.89217389E+00
   0.15550   0.89744377E+00
   0.15650   0.90491599E+00
   0.15750   0.91321534E+00
   0.15850   0.91961032E+00
   0.15950   0.92050719E+00
   0.16050   0.91368055E+00
   0.16150   0.90116137E+00
   0.16250   0.88915682E+00
   0.16350   0.88377458E+00
   0.16450   0.88680404E+00
   0.16550   0.89539015E+00
   0.16650   0.90476006E+00
   0.16750   0.91114986E+00
   0.16850   0.91313517E+00
   0.16950   0.91132379E+00
   0.17050   0.90733516E+00
   0.17150   0.90289646E+00
   0.17250   0.89935786E+00
   0.17350   0.89757419E+00
   0.17450   0.89805031E+00
   0.17550   0.90123773E+00
   0.17650   0.90597135E+00
   0.17750   0.90973759E+00
   0.17850   0.91233379E+00
   0.17950   0.91401792E+00
   0.18050   0.91499931E+00
   0.18150   0.91545820E+00
   0.18250   0.91555846E+00
   0.18350   0.91544676E+00
   0.18450   0.91524720E+00
   0.18550   0.91505629E+00
   0.18650   0.91494012E+00
   0.18750   0.91493458E+00
   0.18850   0.91504735E+00
   0.18950   0.91526276E+00
   0.19050   0.91554791E+00
   0.19150   0.91585922E+00
   0.19250   0.91614968E+00
   0.19350   0.91637510E+00
   0.19450   0.91649944E+00
   0.19550   0.91649830E+00
   0.19650   0.91636091E+00
   0.19750   0.91609007E+00
   0.19850   0.91569978E+00
   0.19950   0.91521227E+00
   0.20050   0.91465288E+00
   0.20150   0.91404492E+00
   0.20250   0.91340363E+00
   0.20350   0.91272974E+00
   0.20450   0.91200250E+00
   0.20550   0.91117001E+00
   0.20650   0.91013473E+00
   0.20750   0.90872544E+00
   0.20850   0.90663821E+00
   0.20950   0.90329516E+00
   0.21050   0.89746886E+00
   0.21150   0.88613141E+00
   0.21250   0.86032087E+00
   0.21350   0.79007328E+00
   0.21450   0.66499168E+00
   0.21550   0.76468498E+00
   0.21650   0.85130376E+00
   0.21750   0.87772030E+00
   0.21850   0.88471019E+00
   0.21950   0.88792592E+00
   0.22050   0.89040226E+00
   0.22150   0.89250791E+00
   0.22250   0.89433414E+00
   0.22350   0.89592320E+00
   0.22450   0.89729893E+00
   0.22550   0.89847559E+00
   0.22650   0.89946193E+00
   0.22750   0.90026408E+00
   0.22850   0.90088713E+00
   0.22950   0.90133572E+00
   0.23050   0.90161383E+00
   0.23150   0.90172362E+00
   0.23250   0.90166551E+00
   0.23350   0.90145272E+00
   0.23450   0.90126288E+00
   0.23550   0.90163541E+00
   0.23650   0.90237820E+00
   0.23750   0.90315962E+00
   0.23850   0.90390366E+00
   0.23950   0.90459013E+00
   0.24050   0.90520936E+00
   0.24150   0.90575534E+00
   0.24250   0.90622479E+00
   0.24350   0.90661728E+00
   0.24450   0.90693539E+00
   0.24550   0.90718454E+00
   0.24650   0.90737236E+00
   0.24750   0.90750808E+00
   0.24850   0.90760159E+00
   0.24950   0.90766275E+00
   0.25050   0.90770054E+00
   0.25150   0.90772259E+00
   0.25250   0.90773439E+00
   0.25350   0.90773964E+00
   0.25450   0.90773958E+00
   0.25550   0.90773368E+00
   0.25650   0.90771979E+00
   0.25750   0.90769458E+00
   0.25850   0.90765405E+00
   0.25950   0.90759420E+00
   0.26050   0.90751141E+00
   0.26150   0.90740281E+00
   0.26250   0.90726674E+00
   0.26350   0.90710270E+00
   0.26450   0.90691161E+00
   0.26550   0.90669554E+00
   0.26650   0.90645748E+00
   0.26750   0.90620130E+00
   0.26850   0.90593088E+00
   0.26950   0.90565032E+00
   0.27050   0.90536320E+00
   0.27150   0.90507251E+00
   0.27250   0.90478021E+00
   0.27350   0.90448731E+00
   0.27450   0.90419388E+00
   0.27550   0.90389889E+00
   0.27650   0.90360063E+00
   0.27750   0.90329677E+00
   0.27850   0.90298480E+00
   0.27950   0.90266216E+00
   0.28050   0.90232664E+00
   0.28150   0.90197659E+00
   0.28250   0.90161109E+00
   0.28350   0.90123004E+00
   0.28450   0.90083438E+00
   0.28550   0.90042567E+00
   0.28650   0.90000623E+00
   0.28750   0.89957887E+00
   0.28850   0.89914662E+00
   0.28950   0.89871240E+00
   0.29050   0.89827901E+00
   0.29150   0.89784855E+00
   0.29250   0.89742279E+00
   0.29350   0.89700288E+00
   0.29450   0.89658964E+00
   0.29550   0.89618498E+00
   0.29650   0.89579451E+00
   0.29750   0.89543760E+00
   0.29850   0.89518267E+00
   0.29950   0.89511162E+00
   0.30050   0.89502543E+00
   0.30150   0.89483994E+00
   0.30250   0.89458442E+00
   0.30350   0.89428216E+00
   0.30450   0.89394736E+00
   0.30550   0.89358884E+00
   0.30650   0.89321244E+00
   0.30750   0.89282233E+00
   0.30850   0.89242125E+00
   0.30950   0.89201140E+00
   0.31050   0.89159405E+00
   0.31150   0.89117014E+00
   0.31250   0.89074022E+00
   0.31350   0.89030463E+00
   0.31450   0.88986331E+00
   0.31550   0.88941616E+00
   0.31650   0.88896298E+00
   0.31750   0.88850331E+00
   0.31850   0.88803679E+00
   0.31950   0.88756293E+00
   0.32050   0.88708109E+00
   0.32150   0.88659072E+00
   0.32250   0.88609111E+00
   0.32350   0.88558125E+00
   0.32450   0.88506013E+00
   0.32550   0.88452625E+00
   0.32650   0.88397789E+00
   0.32750   0.88341260E+00
   0.32850   0.88282716E+00
   0.32950   0.88221735E+00
   0.33050   0.88157749E+00
   0.33150   0.88089991E+00
   0.33250   0.88017416E+00
   0.33350   0.87938565E+00
   0.33450   0.87851399E+00
   0.33550   0.87752980E+00
   0.33650   0.87638950E+00
   0.33750   0.87502629E+00
   0.33850   0.87333369E+00
   0.33950   0.87113273E+00
   0.34050   0.86810386E+00
   0.34150   0.86363041E+00
   0.34250   0.85639983E+00
   0.34350   0.84324139E+00
   0.34450   0.81520915E+00
   0.34550   0.74425316E+00
   0.34650   0.60763025E+00
   0.34750   0.68649179E+00
   0.34850   0.80027187E+00
   0.34950   0.84115016E+00
   0.35050   0.85699952E+00
   0.35150   0.86420161E+00
   0.35250   0.86785179E+00
   0.35350   0.86982095E+00
   0.35450   0.87090540E+00
   0.35550   0.87148505E+00
   0.35650   0.87175769E+00
   0.35750   0.87183344E+00
   0.35850   0.87177688E+00
   0.35950   0.87162691E+00
   0.36050   0.87140661E+00
   0.36150   0.87112617E+00
   0.36250   0.87077880E+00
   0.36350   0.87037861E+00
   0.36450   0.86998093E+00
   0.36550   0.86958349E+00
   0.36650   0.86917305E+00
   0.36750   0.86874157E+00
   0.36850   0.86828458E+00
   0.36950   0.86779952E+00
   0.37050   0.86728501E+00
   0.37150   0.86674011E+00
   0.37250   0.86616421E+00
   0.37350   0.86555666E+00
   0.37450   0.86491680E+00
   0.37550   0.86424369E+00
   0.37650   0.86353588E+00
   0.37750   0.86279130E+00
   0.37850   0.86200678E+00
   0.37950   0.86117750E+00
   0.38050   0.86029714E+00
   0.38150   0.85936958E+00
   0.38250   0.85847533E+00
   0.38350   0.85765612E+00
   0.38450   0.85683876E+00
   0.38550   0.85599864E+00
   0.38650   0.85513109E+00
   0.38750   0.85423541E+00
   0.38850   0.85331142E+00
   0.38950   0.85235876E+00
   0.39050   0.85137695E+00
   0.39150   0.85036510E+00
   0.39250   0.84932208E+00
   0.39350   0.84824663E+00
   0.39450   0.84713733E+00
   0.39550   0.84599262E+00
   0.39650   0.84481072E+00
   0.39750   0.84358984E+00
   0.39850   0.84232795E+00
   0.39950   0.84102291E+00
   0.40050   0.83967215E+00
   0.40150   0.83827299E+00
   0.40250   0.83682221E+00
   0.40350   0.83531618E+00
   0.40450   0.83375078E+00
   0.40550   0.83212113E+00
   0.40650   0.83042181E+00
   0.40750   0.82864654E+00
   0.40850   0.82678843E+00
   0.40950   0.82483965E+00
   0.41050   0.82279187E+00
   0.41150   0.82063645E+00
   0.41250   0.81836587E+00
   0.41350   0.81597865E+00
   0.41450   0.81347835E+00
   0.41550   0.81081170E+00
   0.41650   0.80793118E+00
   0.41750   0.80482423E+00
   0.41850   0.80147368E+00
   0.41950   0.79785562E+00
   0.42050   0.79394072E+00
   0.42150   0.78969419E+00
   0.42250   0.78507549E+00
   0.42350   0.78003782E+00
   0.42450   0.77452713E+00
   0.42550   0.76848125E+00
   0.42650   0.76182860E+00
   0.42750   0.75448710E+00
   0.42850   0.74636251E+00
   0.42950   0.73734730E+00
   0.43050   0.72731924E+00
   0.43150   0.71614057E+00
   0.43250   0.70365745E+00
   0.43350   0.68970060E+00
   0.43450   0.67408729E+00
   0.43550   0.65662462E+00
   0.43650   0.63711393E+00
   0.43750   0.61535335E+00
   0.43850   0.59113175E+00
   0.43950   0.56419688E+00
   0.44050   0.53416634E+00
   0.44150   0.50032014E+00
   0.44250   0.46118191E+00
   0.44350   0.41377822E+00
   0.44450   0.35260570E+00
   0.44550   0.26929918E+00
   0.44650   0.15845023E+00
   0.44750   0.45167722E-01
   0.44850   0.74808148E-03
   0.44950   0.35510473E-02
   0.45050   0.85479349E-01
   0.45150   0.25362399E+00
   0.45250   0.40836436E+00
   0.45350   0.52185398E+00
   0.45450   0.60190648E+00
   0.45550   0.65917671E+00
   0.45650   0.70112842E+00
   0.45750   0.73241937E+00
   0.45850   0.75584424E+00
   0.45950   0.77291346E+00
   0.46050   0.78398418E+00
   0.46150   0.78768873E+00
   0.46250   0.77827442E+00
   0.46350   0.73361760E+00
   0.46450   0.56832498E+00
   0.46550   0.50492030E+00
   0.46650   0.74380881E+00
   0.46750   0.82068682E+00
   0.46850   0.84814489E+00
   0.46950   0.86157334E+00
   0.47050   0.86971235E+00
   0.47150   0.87536818E+00
   0.47250   0.87965256E+00
   0.47350   0.88308024E+00
   0.47450   0.88591909E+00
   0.47550   0.88832086E+00
   0.47650   0.89037579E+00
   0.47750   0.89213789E+00
   0.47850   0.89363569E+00
   0.47950   0.89487714E+00
   0.48050   0.89584821E+00
   0.48150   0.89650768E+00
   0.48250   0.89677393E+00
   0.48350   0.89649928E+00
   0.48450   0.89541852E+00
   0.48550   0.89304173E+00
   0.48650   0.88841438E+00
   0.48750   0.87952834E+00
   0.48850   0.86170131E+00
   0.48950   0.82243830E+00
   0.49050   0.72270292E+00
   0.49150   0.44047120E+00
   0.49250   0.77652834E-01
   0.49350   0.34742889E+00
   0.49450   0.62503046E+00
   0.49550   0.74356204E+00
   0.49650   0.79868865E+00
   0.49750   0.82800341E+00
   0.49850   0.84477395E+00
   0.49950   0.85511595E+00
   0.50050   0.86236691E+00
   0.50150   0.86774224E+00
   0.50250   0.87182385E+00
   0.50350   0.87495100E+00
   0.50450   0.87732875E+00
   0.50550   0.87909210E+00
   0.50650   0.88044089E+00
   0.50750   0.88237959E+00
   0.50850   0.88699138E+00
   0.50950   0.88923264E+00
   0.51050   0.88850850E+00
   0.51150   0.88673526E+00
   0.51250   0.88302189E+00
   0.51350   0.86944336E+00
   0.51450   0.67238706E+00
   0.51550   0.76464236E+00
   0.51650   0.85590082E+00
   0.51750   0.86584461E+00
   0.51850   0.86675715E+00
   0.51950   0.86530167E+00
   0.52050   0.86394399E+00
   0.52150   0.86371350E+00
   0.52250   0.86272466E+00
   0.52350   0.86054111E+00
   0.52450   0.85738003E+00
   0.52550   0.85337710E+00
   0.52650   0.84851968E+00
   0.52750   0.84237999E+00
   0.52850   0.83330959E+00
   0.52950   0.81702989E+00
   0.53050   0.78927320E+00
   0.53150   0.76249439E+00
   0.53250   0.75530261E+00
   0.53350   0.75979215E+00
   0.53450   0.76728207E+00
   0.53550   0.77606231E+00
   0.53650   0.78514278E+00
   0.53750   0.79336905E+00
   0.53850   0.88694865E+00
   0.53950   0.80230480E+00
   0.54050   0.80285895E+00
   0.54150   0.78738147E+00
   0.54250   0.56834197E+00
   0.54350   0.76503569E+00
   0.54450   0.72910541E+00
   0.54550   0.13471348E+01
   0.54650   0.15924748E+01
   0.54750   0.17486516E+01
   0.54850   0.18638754E+01
   0.54950   0.19509044E+01
   0.55050   0.20146384E+01
   0.55150   0.20798411E+01
   0.55250   0.21099911E+01
   0.55350   0.21691120E+01
   0.55450   0.22157030E+01
   0.55550   0.22411916E+01
   0.55650   0.22758889E+01
   0.55750   0.23094454E+01
   0.55850   0.23296461E+01
   0.55950   0.23496342E+01
   0.56050   0.23785312E+01
   0.56150   0.24078989E+01
   0.56250   0.24281819E+01
   0.56350   0.24419692E+01
   0.56450   0.24574146E+01
   0.56550   0.24771042E+01
   0.56650   0.24968603E+01
   0.56750   0.25119510E+01
   0.56850   0.25222256E+01
   0.56950   0.25312748E+01
   0.57050   0.25421762E+01
   0.57150   0.25549092E+01
   0.57250   0.25670700E+01
   0.57350   0.25763559E+01
   0.57450   0.25824344E+01
   0.57550   0.25868101E+01
   0.57650   0.25912786E+01
   0.57750   0.25965602E+01
   0.57850   0.26020565E+01
   0.57950   0.26065946E+01
   0.58050   0.26094334E+01
   0.58150   0.26107879E+01
   0.58250   0.26115813E+01
   0.58350   0.26127329E+01
   0.58450   0.26145442E+01
   0.58550   0.26165543E+01
   0.58650   0.26178832E+01
   0.58750   0.26177983E+01
   0.58850   0.26161644E+01
   0.58950   0.26135283E+01
   0.59050   0.26108339E+01
   0.59150   0.26089709E+01
   0.59250   0.26083970E+01
   0.59350   0.26089962E+01
   0.59450   0.26101902E+01
   0.59550   0.26112275E+01
   0.59650   0.26115150E+01
   0.59750   0.26108432E+01
   0.59850   0.26094270E+01
   0.59950   0.26077683E+01
   0.60050   0.26064312E+01
   0.60150   0.26058419E+01
   0.60250   0.26061788E+01
   0.60350   0.26073749E+01
   0.60450   0.26092014E+01
   0.60550   0.26113889E+01
   0.60650   0.26137340E+01
   0.60750   0.26161544E+01
   0.60850   0.26186824E+01
   0.60950   0.26214099E+01
   0.61050   0.26244187E+01
   0.61150   0.26277323E+01
   0.61250   0.26313059E+01
   0.61350   0.26350572E+01
   0.61450   0.26389158E+01
   0.61550   0.26428738E+01
   0.61650   0.26470194E+01
   0.61750   0.26516008E+01
   0.61850   0.26570666E+01
   0.61950   0.26630139E+01
   0.62050   0.26687372E+01
   0.62150   0.26738024E+01
   0.62250   0.26774118E+01
   0.62350   0.26797221E+01
   0.62450   0.26819687E+01
   0.62550   0.26843472E+01
   0.62650   0.26868470E+01
   0.62750   0.26894433E+01
   0.62850   0.26920795E+01
   0.62950   0.26946664E+01
   0.63050   0.26971037E+01
   0.63150   0.26993103E+01
   0.63250   0.27012501E+01
   0.63350   0.27029443E+01
   0.63450   0.27044661E+01
   0.63550   0.27059190E+01
   0.63650   0.27074094E+01
   0.63750   0.27090175E+01
   0.63850   0.27107785E+01
   0.63950   0.27126777E+01
   0.64050   0.27146599E+01
   0.64150   0.27166498E+01
   0.64250   0.27185779E+01
   0.64350   0.27204032E+01
   0.64450   0.27221282E+01
   0.64550   0.27238009E+01
   0.64650   0.27255032E+01
   0.64750   0.27273307E+01
   0.64850   0.27293687E+01
   0.64950   0.27316694E+01
   0.65050   0.27342389E+01
   0.65150   0.27370322E+01
   0.65250   0.27399621E+01
   0.65350   0.27429175E+01
   0.65450   0.27457850E+01
   0.65550   0.27484734E+01
   0.65650   0.27509322E+01
   0.65750   0.27531610E+01
   0.65850   0.27552059E+01
   0.65950   0.27571497E+01
   0.66050   0.27590909E+01
   0.66150   0.27611215E+01
   0.66250   0.27633073E+01
   0.66350   0.27656734E+01
   0.66450   0.27681980E+01
   0.66550   0.27708142E+01
   0.66650   0.27734220E+01
   0.66750   0.27759042E+01
   0.66850   0.27781453E+01
   0.66950   0.27800527E+01
   0.67050   0.27815704E+01
   0.67150   0.27826896E+01
   0.67250   0.27834501E+01
   0.67350   0.27839360E+01
   0.67450   0.27842624E+01
   0.67550   0.27845612E+01
   0.67650   0.27849617E+01
   0.67750   0.27855740E+01
   0.67850   0.27864730E+01
   0.67950   0.27876844E+01
   0.68050   0.27891777E+01
   0.68150   0.27908590E+01
   0.68250   0.27925737E+01
   0.68350   0.27941098E+01
   0.68450   0.27952080E+01
   0.68550   0.27955718E+01
   0.68650   0.27948928E+01
   0.68750   0.27931979E+01
   0.68850   0.27913637E+01
   0.68950   0.27898328E+01
   0.69050   0.27887263E+01
   0.69150   0.27881067E+01
   0.69250   0.27879672E+01
   0.69350   0.27882338E+01
   0.69450   0.27887785E+01
   0.69550   0.27894390E+01
   0.69650   0.27900407E+01
   0.69750   0.27904201E+01
   0.69850   0.27904439E+01
   0.69950   0.27900262E+01
   0.70050   0.27891340E+01
   0.70150   0.27877891E+01
   0.70250   0.27860599E+01
   0.70350   0.27840500E+01
   0.70450   0.27819140E+01
   0.70550   0.27800441E+01
   0.70650   0.27788424E+01
   0.70750   0.27779965E+01
   0.70850   0.27773044E+01
   0.70950   0.27766628E+01
   0.71050   0.27759674E+01
   0.71150   0.27751045E+01
   0.71250   0.27739592E+01
   0.71350   0.27724230E+01
   0.71450   0.27704000E+01
   0.71550   0.27678053E+01
   0.71650   0.27645552E+01
   0.71750   0.27605448E+01
   0.71850   0.27556033E+01
   0.71950   0.27494085E+01
   0.72050   0.27413018E+01
   0.72150   0.27298226E+01
   0.72250   0.27112758E+01
   0.72350   0.26738520E+01
   0.72450   0.25593727E+01
   0.72550   0.21840761E+01
   0.72650   0.26675858E+01
   0.72750   0.27607999E+01
   0.72850   0.27665300E+01
   0.72950   0.27621531E+01
   0.73050   0.27556579E+01
   0.73150   0.27481258E+01
   0.73250   0.27391434E+01
   0.73350   0.27273371E+01
   0.73450   0.26873724E+01
   0.73550   0.23715835E+01
   0.73650   0.26265213E+01
   0.73750   0.26383553E+01
   0.73850   0.26261184E+01
   0.73950   0.26070893E+01
   0.74050   0.25801301E+01
   0.74150   0.25302317E+01
   0.74250   0.23672614E+01
   0.74350   0.21228504E+01
   0.74450   0.24651322E+01
   0.74550   0.22248564E+01
   0.74650   0.20689969E+01
   0.74750   0.19356599E+01
   0.74850   0.19003117E+01
   0.74950   0.18117810E+01
   0.75050   0.17944775E+01
   0.75150   0.18204250E+01
   0.75250   0.18786989E+01
   0.75350   0.19447780E+01
   0.75450   0.20150487E+01
   0.75550   0.20778260E+01
   0.75650   0.21229546E+01
   0.75750   0.21567371E+01
   0.75850   0.21887500E+01
   0.75950   0.22241855E+01
   0.76050   0.22649679E+01
   0.76150   0.23123009E+01
   0.76250   0.23663602E+01
   0.76350   0.24255455E+01
   0.76450   0.24876838E+01
   0.76550   0.25513039E+01
   0.76650   0.26153524E+01
   0.76750   0.26786005E+01
   0.76850   0.27399180E+01
   0.76950   0.27988131E+01
   0.77050   0.28553689E+01
   0.77150   0.29097440E+01
   0.77250   0.29618733E+01
   0.77350   0.30115340E+01
   0.77450   0.30585203E+01
   0.77550   0.31027281E+01
   0.77650   0.31441796E+01
   0.77750   0.31830573E+01
   0.77850   0.32197216E+01
   0.77950   0.32546453E+01
   0.78050   0.32882686E+01
   0.78150   0.33209546E+01
   0.78250   0.33533497E+01
   0.78350   0.33852153E+01
   0.78450   0.34158554E+01
   0.78550   0.34455061E+01
   0.78650   0.34746091E+01
   0.78750   0.35034256E+01
   0.78850   0.35318978E+01
   0.78950   0.35597019E+01
   0.79050   0.35864379E+01
   0.79150   0.36118567E+01
   0.79250   0.36360123E+01
   0.79350   0.36592765E+01
   0.79450   0.36822217E+01
   0.79550   0.37054389E+01
   0.79650   0.37293706E+01
   0.79750   0.37542067E+01
   0.79850   0.37798588E+01
   0.79950   0.38059986E+01
   0.80050   0.38321321E+01
   0.80150   0.38576925E+01
   0.80250   0.38821270E+01
   0.80350   0.39049747E+01
   0.80450   0.39259250E+01
   0.80550   0.39448545E+01
   0.80650   0.39618382E+01
   0.80750   0.39771354E+01
   0.80850   0.39911454E+01
   0.80950   0.40043449E+01
   0.81050   0.40172100E+01
   0.81150   0.40301371E+01
   0.81250   0.40433722E+01
   0.81350   0.40569553E+01
   0.81450   0.40706892E+01
   0.81550   0.40841336E+01
   0.81650   0.40966377E+01
   0.81750   0.41074052E+01
   0.81850   0.41155882E+01
   0.81950   0.41203775E+01
   0.82050   0.41210542E+01
   0.82150   0.41169276E+01
   0.82250   0.41070523E+01
   0.82350   0.40894032E+01
   0.82450   0.40583014E+01
   0.82550   0.39967494E+01
   0.82650   0.38949220E+01
   0.82750   0.38015661E+01
   0.82850   0.37293625E+01
   0.82950   0.36720169E+01
   0.83050   0.36251209E+01
   0.83150   0.35860472E+01
   0.83250   0.35530891E+01
   0.83350   0.35250068E+01
   0.83450   0.35007918E+01
   0.83550   0.34795527E+01
   0.83650   0.34604769E+01
   0.83750   0.34428504E+01
   0.83850   0.34261200E+01
   0.83950   0.34099667E+01
   0.84050   0.33943551E+01
   0.84150   0.33795309E+01
   0.84250   0.33660145E+01
   0.84350   0.33545630E+01
   0.84450   0.33446510E+01
   0.84550   0.33349738E+01
   0.84650   0.33245325E+01
   0.84750   0.33116984E+01
   0.84850   0.32949004E+01
   0.84950   0.32758155E+01
   0.85050   0.32559974E+01
   0.85150   0.32362401E+01
   0.85250   0.32171218E+01
   0.85350   0.31989748E+01
   0.85450   0.31818027E+01
   0.85550   0.31652057E+01
   0.85650   0.31483300E+01
   0.85750   0.31298718E+01
   0.85850   0.31082020E+01
   0.85950   0.30816660E+01
   0.86050   0.30490701E+01
   0.86150   0.30102382E+01
   0.86250   0.29663815E+01
   0.86350   0.29198427E+01
   0.86450   0.28723915E+01
   0.86550   0.28188252E+01
   0.86650   0.27106605E+01
   0.86750   0.22495530E+01
   0.86850   0.25623741E+01
   0.86950   0.28851466E+01
   0.87050   0.29498708E+01
   0.87150   0.29654722E+01
   0.87250   0.28532968E+01
   0.87350   0.26449537E+01
   0.87450   0.25308905E+01
   0.87550   0.26740487E+01
   0.87650   0.27203023E+01
   0.87750   0.26187625E+01
   0.87850   0.25883996E+01
   0.87950   0.25629215E+01
   0.88050   0.25924120E+01
   0.88150   0.25111451E+01
   0.88250   0.25261850E+01
   0.88350   0.26257751E+01
   0.88450   0.23614154E+01
   0.88550   0.22878327E+01
   0.88650   0.22671523E+01
   0.88750   0.21702709E+01
   0.88850   0.21886234E+01
   0.88950   0.22594516E+01
   0.89050   0.22756019E+01
   0.89150   0.22616374E+01
   0.89250   0.22249658E+01
   0.89350   0.21847165E+01
   0.89450   0.21671796E+01
   0.89550   0.21888075E+01
   0.89650   0.22390876E+01
   0.89750   0.22857060E+01
   0.89850   0.23086660E+01
   0.89950   0.23079484E+01
   0.90050   0.22874718E+01
   0.90150   0.22505715E+01
   0.90250   0.22099106E+01
   0.90350   0.21688001E+01
   0.90450   0.21280744E+01
   0.90550   0.20913751E+01
   0.90650   0.20628235E+01
   0.90750   0.20455976E+01
   0.90850   0.20412600E+01
   0.90950   0.20488031E+01
   0.91050   0.20638261E+01
   0.91150   0.20788169E+01
   0.91250   0.20851884E+01
   0.91350   0.20767715E+01
   0.91450   0.20523245E+01
   0.91550   0.20145862E+01
   0.91650   0.19672319E+01
   0.91750   0.19130107E+01
   0.91850   0.18539597E+01
   0.91950   0.17922486E+01
   0.92050   0.17301996E+01
   0.92150   0.16694973E+01
   0.92250   0.16109191E+01
   0.92350   0.15555664E+01
   0.92450   0.15067123E+01
   0.92550   0.14699837E+01
   0.92650   0.14511547E+01
   0.92750   0.14538431E+01
   0.92850   0.14791654E+01
   0.92950   0.15261582E+01
   0.93050   0.15895666E+01
   0.93150   0.16537188E+01
   0.93250   0.16903079E+01
   0.93350   0.16738642E+01
   0.93450   0.16077803E+01
   0.93550   0.15248195E+01
   0.93650   0.14546348E+01
   0.93750   0.14033805E+01
   0.93850   0.13616629E+01
   0.93950   0.13197263E+01
   0.94050   0.12765443E+01
   0.94150   0.12392750E+01
   0.94250   0.12158812E+01
   0.94350   0.12080852E+01
   0.94450   0.12117989E+01
   0.94550   0.12224646E+01
   0.94650   0.12332075E+01
   0.94750   0.12409256E+01
   0.94850   0.12465805E+01
   0.94950   0.12516787E+01
   0.95050   0.12572581E+01
   0.95150   0.12638680E+01
   0.95250   0.12700227E+01
   0.95350   0.12667603E+01
   0.95450   0.12344838E+01
   0.95550   0.11581823E+01
   0.95650   0.10522348E+01
   0.95750   0.94290030E+00
   0.95850   0.83615053E+00
   0.95950   0.73804206E+00
   0.96050   0.65690398E+00
   0.96150   0.59745491E+00
   0.96250   0.56152529E+00
   0.96350   0.55916017E+00
   0.96450   0.67608261E+00
   0.96550   0.10176374E+01
   0.96650   0.78522140E+00
   0.96750   0.80124640E+00
   0.96850   0.87978435E+00
   0.96950   0.10379094E+01
   0.97050   0.95704699E+00
   0.97150   0.78240526E+00
   0.97250   0.72834432E+00
   0.97350   0.71706426E+00
   0.97450   0.73331398E+00
   0.97550   0.77603537E+00
   0.97650   0.84467322E+00
   0.97750   0.91461623E+00
   0.97850   0.94076842E+00
   0.97950   0.86122316E+00
   0.98050   0.74271113E+00
   0.98150   0.68502671E+00
   0.98250   0.66010761E+00
   0.98350   0.65845191E+00
   0.98450   0.68060124E+00
   0.98550   0.72263831E+00
   0.98650   0.76611143E+00
   0.98750   0.79101688E+00
   0.98850   0.79471308E+00
   0.98950   0.77404279E+00
   0.99050   0.73906797E+00
   0.99150   0.70105428E+00
   0.99250   0.66912138E+00
   0.99350   0.64738673E+00
   0.99450   0.63480675E+00
   0.99550   0.62622118E+00
   0.99650   0.61734629E+00
   0.99750   0.60549438E+00
   0.99850   0.58960801E+00
   0.99950   0.56945741E+00
