# Transmission, k-averaged
# Date: 2021-05-13
#   E [eV]           T [G0]
   0.00050   0.54757369E+00
   0.00150   0.36256775E+00
   0.00250   0.40379125E+00
   0.00350   0.22067605E+00
   0.00450   0.14476423E+00
   0.00550   0.11705887E+00
   0.00650   0.11021583E+00
   0.00750   0.13958526E+00
   0.00850   0.14821663E+00
   0.00950   0.71719147E-01
   0.01050   0.64253464E-01
   0.01150   0.51216524E-01
   0.01250   0.46608698E-01
   0.01350   0.35536695E-01
   0.01450   0.31223817E-01
   0.01550   0.36363591E-01
   0.01650   0.16500868E-01
   0.01750   0.63367143E-01
   0.01850   0.14870455E-01
   0.01950   0.15214086E-01
   0.02050   0.10203701E+00
   0.02150   0.11258958E-01
   0.02250   0.13249995E-01
   0.02350   0.17036237E+00
   0.02450   0.14611315E-01
   0.02550   0.99367425E-02
   0.02650   0.38879577E-01
   0.02750   0.55417497E-01
   0.02850   0.11399397E-01
   0.02950   0.11890908E-01
   0.03050   0.55278681E-01
   0.03150   0.56051988E-01
   0.03250   0.12868172E-01
   0.03350   0.11536940E-01
   0.03450   0.31583514E-01
   0.03550   0.14706808E+00
   0.03650   0.20348104E-01
   0.03750   0.11481508E-01
   0.03850   0.16185572E-01
   0.03950   0.72576836E-01
   0.04050   0.76312281E-01
   0.04150   0.18433001E-01
   0.04250   0.14052003E-01
   0.04350   0.25636800E-01
   0.04450   0.14071070E+00
   0.04550   0.10519350E+00
   0.04650   0.52890044E-01
   0.04750   0.48970085E-01
   0.04850   0.67430012E-01
   0.04950   0.12172733E+00
   0.05050   0.17296048E+00
   0.05150   0.12291031E+00
   0.05250   0.83729789E-01
   0.05350   0.74206010E-01
   0.05450   0.85670494E-01
   0.05550   0.11857760E+00
   0.05650   0.15361881E+00
   0.05750   0.14012739E+00
   0.05850   0.10737646E+00
   0.05950   0.91134802E-01
   0.06050   0.92888542E-01
   0.06150   0.11153002E+00
   0.06250   0.14314578E+00
   0.06350   0.16317448E+00
   0.06450   0.15015651E+00
   0.06550   0.12811249E+00
   0.06650   0.11780555E+00
   0.06750   0.12299086E+00
   0.06850   0.14376648E+00
   0.06950   0.17565772E+00
   0.07050   0.19967853E+00
   0.07150   0.19647853E+00
   0.07250   0.17798276E+00
   0.07350   0.16504936E+00
   0.07450   0.16601171E+00
   0.07550   0.18239659E+00
   0.07650   0.21187599E+00
   0.07750   0.24283476E+00
   0.07850   0.25488013E+00
   0.07950   0.24241005E+00
   0.08050   0.22236733E+00
   0.08150   0.21054666E+00
   0.08250   0.21290541E+00
   0.08350   0.22998326E+00
   0.08450   0.25737378E+00
   0.08550   0.28137529E+00
   0.08650   0.28351143E+00
   0.08750   0.26210549E+00
   0.08850   0.23475222E+00
   0.08950   0.21671839E+00
   0.09050   0.21404339E+00
   0.09150   0.22788873E+00
   0.09250   0.25083619E+00
   0.09350   0.25864390E+00
   0.09450   0.24203050E+00
   0.09550   0.21636271E+00
   0.09650   0.19836256E+00
   0.09750   0.19573405E+00
   0.09850   0.21123695E+00
   0.09950   0.24453855E+00
   0.10050   0.28860262E+00
   0.10150   0.33228180E+00
   0.10250   0.37594727E+00
   0.10350   0.43281937E+00
   0.10450   0.51255554E+00
   0.10550   0.60973543E+00
   0.10650   0.70424587E+00
   0.10750   0.77746671E+00
   0.10850   0.82738268E+00
   0.10950   0.86287332E+00
   0.11050   0.89134359E+00
   0.11150   0.91502059E+00
   0.11250   0.93338704E+00
   0.11350   0.94604278E+00
   0.11450   0.95378476E+00
   0.11550   0.95817822E+00
   0.11650   0.96070707E+00
   0.11750   0.96227330E+00
   0.11850   0.96318990E+00
   0.11950   0.96345598E+00
   0.12050   0.96305406E+00
   0.12150   0.96211225E+00
   0.12250   0.96089983E+00
   0.12350   0.95971721E+00
   0.12450   0.95877069E+00
   0.12550   0.95810294E+00
   0.12650   0.95760214E+00
   0.12750   0.95707548E+00
   0.12850   0.95634753E+00
   0.12950   0.95534050E+00
   0.13050   0.95410669E+00
   0.13150   0.95280522E+00
   0.13250   0.95163918E+00
   0.13350   0.95078033E+00
   0.13450   0.95030957E+00
   0.13550   0.95019227E+00
   0.13650   0.95029253E+00
   0.13750   0.95041955E+00
   0.13850   0.95038915E+00
   0.13950   0.95008057E+00
   0.14050   0.94947124E+00
   0.14150   0.94863909E+00
   0.14250   0.94773489E+00
   0.14350   0.94693398E+00
   0.14450   0.94638437E+00
   0.14550   0.94616526E+00
   0.14650   0.94626695E+00
   0.14750   0.94659603E+00
   0.14850   0.94700271E+00
   0.14950   0.94732201E+00
   0.15050   0.94741839E+00
   0.15150   0.94722080E+00
   0.15250   0.94673944E+00
   0.15350   0.94606048E+00
   0.15450   0.94532096E+00
   0.15550   0.94467151E+00
   0.15650   0.94423729E+00
   0.15750   0.94408727E+00
   0.15850   0.94421792E+00
   0.15950   0.94455540E+00
   0.16050   0.94497436E+00
   0.16150   0.94532937E+00
   0.16250   0.94549090E+00
   0.16350   0.94537711E+00
   0.16450   0.94497418E+00
   0.16550   0.94433951E+00
   0.16650   0.94358766E+00
   0.16750   0.94286227E+00
   0.16850   0.94230181E+00
   0.16950   0.94200629E+00
   0.17050   0.94201380E+00
   0.17150   0.94229162E+00
   0.17250   0.94274735E+00
   0.17350   0.94326442E+00
   0.17450   0.94378638E+00
   0.17550   0.94450217E+00
   0.17650   0.94542581E+00
   0.17750   0.94599378E+00
   0.17850   0.94624788E+00
   0.17950   0.94634891E+00
   0.18050   0.94640142E+00
   0.18150   0.94646388E+00
   0.18250   0.94656026E+00
   0.18350   0.94668770E+00
   0.18450   0.94682443E+00
   0.18550   0.94693714E+00
   0.18650   0.94698936E+00
   0.18750   0.94694847E+00
   0.18850   0.94679195E+00
   0.18950   0.94651079E+00
   0.19050   0.94611061E+00
   0.19150   0.94561011E+00
   0.19250   0.94503766E+00
   0.19350   0.94442636E+00
   0.19450   0.94380814E+00
   0.19550   0.94320923E+00
   0.19650   0.94264573E+00
   0.19750   0.94212139E+00
   0.19850   0.94162720E+00
   0.19950   0.94114274E+00
   0.20050   0.94063950E+00
   0.20150   0.94008505E+00
   0.20250   0.93944776E+00
   0.20350   0.93870157E+00
   0.20450   0.93782961E+00
   0.20550   0.93682623E+00
   0.20650   0.93569762E+00
   0.20750   0.93445992E+00
   0.20850   0.93313581E+00
   0.20950   0.93175030E+00
   0.21050   0.93032503E+00
   0.21150   0.92887425E+00
   0.21250   0.92740166E+00
   0.21350   0.92590320E+00
   0.21450   0.92438293E+00
   0.21550   0.92291921E+00
   0.21650   0.92196023E+00
   0.21750   0.92351294E+00
   0.21850   0.92905718E+00
   0.21950   0.93462789E+00
   0.22050   0.93908399E+00
   0.22150   0.94267827E+00
   0.22250   0.94566846E+00
   0.22350   0.94823033E+00
   0.22450   0.95048022E+00
   0.22550   0.95249480E+00
   0.22650   0.95432234E+00
   0.22750   0.95599073E+00
   0.22850   0.95751292E+00
   0.22950   0.95889103E+00
   0.23050   0.96011996E+00
   0.23150   0.96118969E+00
   0.23250   0.96208745E+00
   0.23350   0.96280646E+00
   0.23450   0.96341962E+00
   0.23550   0.96419984E+00
   0.23650   0.96510029E+00
   0.23750   0.96599442E+00
   0.23850   0.96686864E+00
   0.23950   0.96772802E+00
   0.24050   0.96857458E+00
   0.24150   0.96940511E+00
   0.24250   0.97021234E+00
   0.24350   0.97098660E+00
   0.24450   0.97171849E+00
   0.24550   0.97240001E+00
   0.24650   0.97302634E+00
   0.24750   0.97359639E+00
   0.24850   0.97411293E+00
   0.24950   0.97458214E+00
   0.25050   0.97501266E+00
   0.25150   0.97541457E+00
   0.25250   0.97579807E+00
   0.25350   0.97617203E+00
   0.25450   0.97654343E+00
   0.25550   0.97691637E+00
   0.25650   0.97729194E+00
   0.25750   0.97766852E+00
   0.25850   0.97804219E+00
   0.25950   0.97840768E+00
   0.26050   0.97875911E+00
   0.26150   0.97909129E+00
   0.26250   0.97940022E+00
   0.26350   0.97968388E+00
   0.26450   0.97994226E+00
   0.26550   0.98017764E+00
   0.26650   0.98039383E+00
   0.26750   0.98059565E+00
   0.26850   0.98078835E+00
   0.26950   0.98097682E+00
   0.27050   0.98116475E+00
   0.27150   0.98135459E+00
   0.27250   0.98154718E+00
   0.27350   0.98174179E+00
   0.27450   0.98193651E+00
   0.27550   0.98212868E+00
   0.27650   0.98231518E+00
   0.27750   0.98249304E+00
   0.27850   0.98265976E+00
   0.27950   0.98281378E+00
   0.28050   0.98295432E+00
   0.28150   0.98308164E+00
   0.28250   0.98319691E+00
   0.28350   0.98330200E+00
   0.28450   0.98339927E+00
   0.28550   0.98349130E+00
   0.28650   0.98358059E+00
   0.28750   0.98366940E+00
   0.28850   0.98375934E+00
   0.28950   0.98385143E+00
   0.29050   0.98394579E+00
   0.29150   0.98404193E+00
   0.29250   0.98413861E+00
   0.29350   0.98423427E+00
   0.29450   0.98432738E+00
   0.29550   0.98441756E+00
   0.29650   0.98450786E+00
   0.29750   0.98461109E+00
   0.29850   0.98477334E+00
   0.29950   0.98505062E+00
   0.30050   0.98531997E+00
   0.30150   0.98552871E+00
   0.30250   0.98569506E+00
   0.30350   0.98583329E+00
   0.30450   0.98595184E+00
   0.30550   0.98605555E+00
   0.30650   0.98614734E+00
   0.30750   0.98622894E+00
   0.30850   0.98630130E+00
   0.30950   0.98636478E+00
   0.31050   0.98641968E+00
   0.31150   0.98646605E+00
   0.31250   0.98650402E+00
   0.31350   0.98653376E+00
   0.31450   0.98655564E+00
   0.31550   0.98657024E+00
   0.31650   0.98657811E+00
   0.31750   0.98658007E+00
   0.31850   0.98657691E+00
   0.31950   0.98656934E+00
   0.32050   0.98655802E+00
   0.32150   0.98654330E+00
   0.32250   0.98652542E+00
   0.32350   0.98650438E+00
   0.32450   0.98647988E+00
   0.32550   0.98645157E+00
   0.32650   0.98641896E+00
   0.32750   0.98638141E+00
   0.32850   0.98633850E+00
   0.32950   0.98628968E+00
   0.33050   0.98623472E+00
   0.33150   0.98617339E+00
   0.33250   0.98610562E+00
   0.33350   0.98603141E+00
   0.33450   0.98595095E+00
   0.33550   0.98586434E+00
   0.33650   0.98577172E+00
   0.33750   0.98567307E+00
   0.33850   0.98556834E+00
   0.33950   0.98545742E+00
   0.34050   0.98533994E+00
   0.34150   0.98521549E+00
   0.34250   0.98508352E+00
   0.34350   0.98494327E+00
   0.34450   0.98479396E+00
   0.34550   0.98463476E+00
   0.34650   0.98446476E+00
   0.34750   0.98428285E+00
   0.34850   0.98408806E+00
   0.34950   0.98387909E+00
   0.35050   0.98365480E+00
   0.35150   0.98341376E+00
   0.35250   0.98315424E+00
   0.35350   0.98287457E+00
   0.35450   0.98257267E+00
   0.35550   0.98224616E+00
   0.35650   0.98189247E+00
   0.35750   0.98150915E+00
   0.35850   0.98109496E+00
   0.35950   0.98065317E+00
   0.36050   0.98020524E+00
   0.36150   0.97985345E+00
   0.36250   0.98006123E+00
   0.36350   0.98135537E+00
   0.36450   0.98279285E+00
   0.36550   0.98397952E+00
   0.36650   0.98495328E+00
   0.36750   0.98577076E+00
   0.36850   0.98647177E+00
   0.36950   0.98708326E+00
   0.37050   0.98762387E+00
   0.37150   0.98810661E+00
   0.37250   0.98854077E+00
   0.37350   0.98893321E+00
   0.37450   0.98928881E+00
   0.37550   0.98961145E+00
   0.37650   0.98990381E+00
   0.37750   0.99016774E+00
   0.37850   0.99040395E+00
   0.37950   0.99061227E+00
   0.38050   0.99079114E+00
   0.38150   0.99094391E+00
   0.38250   0.99111259E+00
   0.38350   0.99132162E+00
   0.38450   0.99153513E+00
   0.38550   0.99174058E+00
   0.38650   0.99193609E+00
   0.38750   0.99212158E+00
   0.38850   0.99229771E+00
   0.38950   0.99246496E+00
   0.39050   0.99262381E+00
   0.39150   0.99277461E+00
   0.39250   0.99291766E+00
   0.39350   0.99305296E+00
   0.39450   0.99318045E+00
   0.39550   0.99330074E+00
   0.39650   0.99341643E+00
   0.39750   0.99353051E+00
   0.39850   0.99364114E+00
   0.39950   0.99374610E+00
   0.40050   0.99384576E+00
   0.40150   0.99394107E+00
   0.40250   0.99403262E+00
   0.40350   0.99412054E+00
   0.40450   0.99420512E+00
   0.40550   0.99428654E+00
   0.40650   0.99436504E+00
   0.40750   0.99444079E+00
   0.40850   0.99451411E+00
   0.40950   0.99458545E+00
   0.41050   0.99465537E+00
   0.41150   0.99472505E+00
   0.41250   0.99479717E+00
   0.41350   0.99487936E+00
   0.41450   0.99498570E+00
   0.41550   0.99509472E+00
   0.41650   0.99518514E+00
   0.41750   0.99526173E+00
   0.41850   0.99532908E+00
   0.41950   0.99538970E+00
   0.42050   0.99544525E+00
   0.42150   0.99549657E+00
   0.42250   0.99554437E+00
   0.42350   0.99558920E+00
   0.42450   0.99563128E+00
   0.42550   0.99567097E+00
   0.42650   0.99570847E+00
   0.42750   0.99574393E+00
   0.42850   0.99577755E+00
   0.42950   0.99580932E+00
   0.43050   0.99583948E+00
   0.43150   0.99586803E+00
   0.43250   0.99589503E+00
   0.43350   0.99592060E+00
   0.43450   0.99594480E+00
   0.43550   0.99596763E+00
   0.43650   0.99598914E+00
   0.43750   0.99600941E+00
   0.43850   0.99602842E+00
   0.43950   0.99604625E+00
   0.44050   0.99606287E+00
   0.44150   0.99607837E+00
   0.44250   0.99609280E+00
   0.44350   0.99610603E+00
   0.44450   0.99611819E+00
   0.44550   0.99612927E+00
   0.44650   0.99613923E+00
   0.44750   0.99614817E+00
   0.44850   0.99615604E+00
   0.44950   0.99616289E+00
   0.45050   0.99616861E+00
   0.45150   0.99617338E+00
   0.45250   0.99617702E+00
   0.45350   0.99617964E+00
   0.45450   0.99618119E+00
   0.45550   0.99618167E+00
   0.45650   0.99618107E+00
   0.45750   0.99617940E+00
   0.45850   0.99617660E+00
   0.45950   0.99617273E+00
   0.46050   0.99616772E+00
   0.46150   0.99616152E+00
   0.46250   0.99615413E+00
   0.46350   0.99614561E+00
   0.46450   0.99613583E+00
   0.46550   0.99612474E+00
   0.46650   0.99611241E+00
   0.46750   0.99609876E+00
   0.46850   0.99608368E+00
   0.46950   0.99606723E+00
   0.47050   0.99604923E+00
   0.47150   0.99602973E+00
   0.47250   0.99600863E+00
   0.47350   0.99598581E+00
   0.47450   0.99596131E+00
   0.47550   0.99593490E+00
   0.47650   0.99590659E+00
   0.47750   0.99587619E+00
   0.47850   0.99584365E+00
   0.47950   0.99580884E+00
   0.48050   0.99577153E+00
   0.48150   0.99573153E+00
   0.48250   0.99568880E+00
   0.48350   0.99564296E+00
   0.48450   0.99559385E+00
   0.48550   0.99554110E+00
   0.48650   0.99548447E+00
   0.48750   0.99542344E+00
   0.48850   0.99535769E+00
   0.48950   0.99528658E+00
   0.49050   0.99520957E+00
   0.49150   0.99512589E+00
   0.49250   0.99503481E+00
   0.49350   0.99493563E+00
   0.49450   0.99482805E+00
   0.49550   0.99471354E+00
   0.49650   0.99460149E+00
   0.49750   0.99453717E+00
   0.49850   0.99469262E+00
   0.49950   0.99508142E+00
   0.50050   0.99544752E+00
   0.50150   0.99574924E+00
   0.50250   0.99600089E+00
   0.50350   0.99621546E+00
   0.50450   0.99640191E+00
   0.50550   0.99656636E+00
   0.50650   0.99671304E+00
   0.50750   0.99684519E+00
   0.50850   0.99696517E+00
   0.50950   0.99707478E+00
   0.51050   0.99717551E+00
   0.51150   0.99726856E+00
   0.51250   0.99735475E+00
   0.51350   0.99743485E+00
   0.51450   0.99750960E+00
   0.51550   0.99757940E+00
   0.51650   0.99764472E+00
   0.51750   0.99770576E+00
   0.51850   0.99776262E+00
   0.51950   0.99781483E+00
   0.52050   0.99786127E+00
   0.52150   0.99790257E+00
   0.52250   0.99794263E+00
   0.52350   0.99798143E+00
   0.52450   0.99801856E+00
   0.52550   0.99805385E+00
   0.52650   0.99808723E+00
   0.52750   0.99811876E+00
   0.52850   0.99814838E+00
   0.52950   0.99817616E+00
   0.53050   0.99820215E+00
   0.53150   0.99822682E+00
   0.53250   0.99825221E+00
   0.53350   0.99828488E+00
   0.53450   0.99832231E+00
   0.53550   0.99835694E+00
   0.53650   0.99838835E+00
   0.53750   0.99841732E+00
   0.53850   0.99844432E+00
   0.53950   0.99846977E+00
   0.54050   0.99849379E+00
   0.54150   0.99851656E+00
   0.54250   0.99853826E+00
   0.54350   0.99855900E+00
   0.54450   0.99857885E+00
   0.54550   0.99859780E+00
   0.54650   0.99861598E+00
   0.54750   0.99863344E+00
   0.54850   0.99865019E+00
   0.54950   0.99866629E+00
   0.55050   0.99868172E+00
   0.55150   0.99869663E+00
   0.55250   0.99871093E+00
   0.55350   0.99872470E+00
   0.55450   0.99873799E+00
   0.55550   0.99875075E+00
   0.55650   0.99876302E+00
   0.55750   0.99877483E+00
   0.55850   0.99878621E+00
   0.55950   0.99879718E+00
   0.56050   0.99880773E+00
   0.56150   0.99881786E+00
   0.56250   0.99882764E+00
   0.56350   0.99883699E+00
   0.56450   0.99884605E+00
   0.56550   0.99885470E+00
   0.56650   0.99886304E+00
   0.56750   0.99887103E+00
   0.56850   0.99887872E+00
   0.56950   0.99888611E+00
   0.57050   0.99889314E+00
   0.57150   0.99889994E+00
   0.57250   0.99890637E+00
   0.57350   0.99891257E+00
   0.57450   0.99891847E+00
   0.57550   0.99892408E+00
   0.57650   0.99892944E+00
   0.57750   0.99893457E+00
   0.57850   0.99893939E+00
   0.57950   0.99894398E+00
   0.58050   0.99894828E+00
   0.58150   0.99895233E+00
   0.58250   0.99895620E+00
   0.58350   0.99895978E+00
   0.58450   0.99896312E+00
   0.58550   0.99896622E+00
   0.58650   0.99896908E+00
   0.58750   0.99897170E+00
   0.58850   0.99897408E+00
   0.58950   0.99897623E+00
   0.59050   0.99897814E+00
   0.59150   0.99897987E+00
   0.59250   0.99898130E+00
   0.59350   0.99898249E+00
   0.59450   0.99898344E+00
   0.59550   0.99898416E+00
   0.59650   0.99898463E+00
   0.59750   0.99898487E+00
   0.59850   0.99898481E+00
   0.59950   0.99898452E+00
   0.60050   0.99898392E+00
   0.60150   0.99898303E+00
   0.60250   0.99898189E+00
   0.60350   0.99898040E+00
   0.60450   0.99897861E+00
   0.60550   0.99897641E+00
   0.60650   0.99897391E+00
   0.60750   0.99897093E+00
   0.60850   0.99896747E+00
   0.60950   0.99896353E+00
   0.61050   0.99895900E+00
   0.61150   0.99895382E+00
   0.61250   0.99894780E+00
   0.61350   0.99894077E+00
   0.61450   0.99893248E+00
   0.61550   0.99892241E+00
   0.61650   0.99890977E+00
   0.61750   0.99889356E+00
   0.61850   0.99887604E+00
   0.61950   0.99886310E+00
   0.62050   0.99885362E+00
   0.62150   0.99885118E+00
   0.62250   0.99887723E+00
   0.62350   0.99893957E+00
   0.62450   0.99900162E+00
   0.62550   0.99905473E+00
   0.62650   0.99910051E+00
   0.62750   0.99914062E+00
   0.62850   0.99917644E+00
   0.62950   0.99920875E+00
   0.63050   0.99923819E+00
   0.63150   0.99926537E+00
   0.63250   0.99929059E+00
   0.63350   0.99931407E+00
   0.63450   0.99933618E+00
   0.63550   0.99935710E+00
   0.63650   0.99937695E+00
   0.63750   0.99939591E+00
   0.63850   0.99941415E+00
   0.63950   0.99943173E+00
   0.64050   0.99944884E+00
   0.64150   0.99946553E+00
   0.64250   0.99948192E+00
   0.64350   0.99949819E+00
   0.64450   0.99951434E+00
   0.64550   0.99953067E+00
   0.64650   0.99954724E+00
   0.64750   0.99956417E+00
   0.64850   0.99958175E+00
   0.64950   0.99960017E+00
   0.65050   0.99961966E+00
   0.65150   0.99964046E+00
   0.65250   0.99966305E+00
   0.65350   0.99968767E+00
   0.65450   0.99971491E+00
   0.65550   0.99974531E+00
   0.65650   0.99977958E+00
   0.65750   0.99981850E+00
   0.65850   0.99986309E+00
   0.65950   0.99991465E+00
   0.66050   0.99997473E+00
   0.66150   0.10000451E+01
   0.66250   0.10001283E+01
   0.66350   0.10002272E+01
   0.66450   0.10003456E+01
   0.66550   0.10004879E+01
   0.66650   0.10006601E+01
   0.66750   0.10008682E+01
   0.66850   0.10011183E+01
   0.66950   0.10014052E+01
   0.67050   0.10015882E+01
   0.67150   0.10028445E+01
   0.67250   0.10032994E+01
   0.67350   0.10041056E+01
   0.67450   0.10051727E+01
   0.67550   0.10065403E+01
   0.67650   0.10082629E+01
   0.67750   0.10103831E+01
   0.67850   0.10128945E+01
   0.67950   0.10156887E+01
   0.68050   0.10185101E+01
   0.68150   0.10209804E+01
   0.68250   0.10227399E+01
   0.68350   0.10234666E+01
   0.68450   0.10233511E+01
   0.68550   0.10227575E+01
   0.68650   0.10220470E+01
   0.68750   0.10207400E+01
   0.68850   0.10209237E+01
   0.68950   0.10220840E+01
   0.69050   0.10228860E+01
   0.69150   0.10235579E+01
   0.69250   0.10241957E+01
   0.69350   0.10249671E+01
   0.69450   0.10261499E+01
   0.69550   0.10277069E+01
   0.69650   0.10294443E+01
   0.69750   0.10303262E+01
   0.69850   0.10334874E+01
   0.69950   0.10320278E+01
   0.70050   0.10302397E+01
   0.70150   0.10340774E+01
   0.70250   0.11041412E+01
   0.70350   0.10824515E+01
   0.70450   0.10959518E+01
   0.70550   0.12010406E+01
   0.70650   0.11781695E+01
   0.70750   0.10517427E+01
   0.70850   0.79581285E+00
   0.70950   0.94497031E+00
   0.71050   0.99710035E+00
   0.71150   0.11281285E+01
   0.71250   0.12608547E+01
   0.71350   0.12659422E+01
   0.71450   0.12364869E+01
   0.71550   0.69130266E+00
   0.71650   0.13053294E+01
   0.71750   0.14091522E+01
   0.71850   0.14428599E+01
   0.71950   0.13687009E+01
   0.72050   0.15140626E+01
   0.72150   0.13753207E+01
   0.72250   0.13184100E+01
   0.72350   0.12646847E+01
   0.72450   0.12505841E+01
   0.72550   0.12501945E+01
   0.72650   0.12540848E+01
   0.72750   0.12609664E+01
   0.72850   0.12745725E+01
   0.72950   0.12977663E+01
   0.73050   0.13315451E+01
   0.73150   0.13820126E+01
   0.73250   0.14653716E+01
   0.73350   0.15581967E+01
   0.73450   0.16295511E+01
   0.73550   0.16843745E+01
   0.73650   0.17283849E+01
   0.73750   0.17646282E+01
   0.73850   0.17948612E+01
   0.73950   0.18203279E+01
   0.74050   0.18419830E+01
   0.74150   0.18605068E+01
   0.74250   0.18763299E+01
   0.74350   0.18897220E+01
   0.74450   0.19008995E+01
   0.74550   0.19100971E+01
   0.74650   0.19175880E+01
   0.74750   0.19236648E+01
   0.74850   0.19286121E+01
   0.74950   0.19326835E+01
   0.75050   0.19360924E+01
   0.75150   0.19390112E+01
   0.75250   0.19415754E+01
   0.75350   0.19438899E+01
   0.75450   0.19460365E+01
   0.75550   0.19480815E+01
   0.75650   0.19500821E+01
   0.75750   0.19520916E+01
   0.75850   0.19541620E+01
   0.75950   0.19563454E+01
   0.76050   0.19586930E+01
   0.76150   0.19612539E+01
   0.76250   0.19640739E+01
   0.76350   0.19671956E+01
   0.76450   0.19706578E+01
   0.76550   0.19744968E+01
   0.76650   0.19787462E+01
   0.76750   0.19834369E+01
   0.76850   0.19885966E+01
   0.76950   0.19942483E+01
   0.77050   0.20004101E+01
   0.77150   0.20070944E+01
   0.77250   0.20143087E+01
   0.77350   0.20220578E+01
   0.77450   0.20303452E+01
   0.77550   0.20391755E+01
   0.77650   0.20485547E+01
   0.77750   0.20584877E+01
   0.77850   0.20689759E+01
   0.77950   0.20800116E+01
   0.78050   0.20915725E+01
   0.78150   0.21036193E+01
   0.78250   0.21160672E+01
   0.78350   0.21287804E+01
   0.78450   0.21417127E+01
   0.78550   0.21548507E+01
   0.78650   0.21681798E+01
   0.78750   0.21816812E+01
   0.78850   0.21953313E+01
   0.78950   0.22091000E+01
   0.79050   0.22229512E+01
   0.79150   0.22368464E+01
   0.79250   0.22507470E+01
   0.79350   0.22646155E+01
   0.79450   0.22784164E+01
   0.79550   0.22921166E+01
   0.79650   0.23056841E+01
   0.79750   0.23190875E+01
   0.79850   0.23322988E+01
   0.79950   0.23452938E+01
   0.80050   0.23580537E+01
   0.80150   0.23705676E+01
   0.80250   0.23828285E+01
   0.80350   0.23948343E+01
   0.80450   0.24065826E+01
   0.80550   0.24180708E+01
   0.80650   0.24292941E+01
   0.80750   0.24402466E+01
   0.80850   0.24509227E+01
   0.80950   0.24613178E+01
   0.81050   0.24714293E+01
   0.81150   0.24812567E+01
   0.81250   0.24907994E+01
   0.81350   0.25000558E+01
   0.81450   0.25090227E+01
   0.81550   0.25176957E+01
   0.81650   0.25260704E+01
   0.81750   0.25341480E+01
   0.81850   0.25419400E+01
   0.81950   0.25494757E+01
   0.82050   0.25568159E+01
   0.82150   0.25640774E+01
   0.82250   0.25714955E+01
   0.82350   0.25796115E+01
   0.82450   0.25899572E+01
   0.82550   0.26075330E+01
   0.82650   0.26370854E+01
   0.82750   0.26653736E+01
   0.82850   0.26877484E+01
   0.82950   0.27058425E+01
   0.83050   0.27209685E+01
   0.83150   0.27339323E+01
   0.83250   0.27452457E+01
   0.83350   0.27552514E+01
   0.83450   0.27641892E+01
   0.83550   0.27722328E+01
   0.83650   0.27795107E+01
   0.83750   0.27861192E+01
   0.83850   0.27921312E+01
   0.83950   0.27975991E+01
   0.84050   0.28025601E+01
   0.84150   0.28070397E+01
   0.84250   0.28111105E+01
   0.84350   0.28151922E+01
   0.84450   0.28195555E+01
   0.84550   0.28238304E+01
   0.84650   0.28278954E+01
   0.84750   0.28317335E+01
   0.84850   0.28353407E+01
   0.84950   0.28387461E+01
   0.85050   0.28419764E+01
   0.85150   0.28450506E+01
   0.85250   0.28479855E+01
   0.85350   0.28507984E+01
   0.85450   0.28535039E+01
   0.85550   0.28561151E+01
   0.85650   0.28586419E+01
   0.85750   0.28610911E+01
   0.85850   0.28634667E+01
   0.85950   0.28657713E+01
   0.86050   0.28680053E+01
   0.86150   0.28701704E+01
   0.86250   0.28722687E+01
   0.86350   0.28743045E+01
   0.86450   0.28762851E+01
   0.86550   0.28782194E+01
   0.86650   0.28801177E+01
   0.86750   0.28819909E+01
   0.86850   0.28838487E+01
   0.86950   0.28856976E+01
   0.87050   0.28875406E+01
   0.87150   0.28893747E+01
   0.87250   0.28911922E+01
   0.87350   0.28929794E+01
   0.87450   0.28947189E+01
   0.87550   0.28963897E+01
   0.87650   0.28979707E+01
   0.87750   0.28994417E+01
   0.87850   0.29007852E+01
   0.87950   0.29019885E+01
   0.88050   0.29030442E+01
   0.88150   0.29039502E+01
   0.88250   0.29047089E+01
   0.88350   0.29053254E+01
   0.88450   0.29058068E+01
   0.88550   0.29061584E+01
   0.88650   0.29063833E+01
   0.88750   0.29064789E+01
   0.88850   0.29064364E+01
   0.88950   0.29062383E+01
   0.89050   0.29058580E+01
   0.89150   0.29052572E+01
   0.89250   0.29043851E+01
   0.89350   0.29031746E+01
   0.89450   0.29015410E+01
   0.89550   0.28993757E+01
   0.89650   0.28965425E+01
   0.89750   0.28928709E+01
   0.89850   0.28881800E+01
   0.89950   0.28825374E+01
   0.90050   0.28781960E+01
   0.90150   0.28815043E+01
   0.90250   0.28888614E+01
   0.90350   0.28952982E+01
   0.90450   0.28991477E+01
   0.90550   0.28946049E+01
   0.90650   0.28590508E+01
   0.90750   0.27863917E+01
   0.90850   0.27330453E+01
   0.90950   0.27015884E+01
   0.91050   0.26719987E+01
   0.91150   0.26543107E+01
   0.91250   0.26807327E+01
   0.91350   0.26745872E+01
   0.91450   0.26801651E+01
   0.91550   0.26750937E+01
   0.91650   0.26035094E+01
   0.91750   0.25588222E+01
   0.91850   0.26286530E+01
   0.91950   0.26926057E+01
   0.92050   0.26873002E+01
   0.92150   0.26878309E+01
   0.92250   0.26812844E+01
   0.92350   0.25672569E+01
   0.92450   0.25113423E+01
   0.92550   0.25316606E+01
   0.92650   0.24789686E+01
   0.92750   0.23910155E+01
   0.92850   0.23625143E+01
   0.92950   0.25176795E+01
   0.93050   0.26222074E+01
   0.93150   0.28185596E+01
   0.93250   0.29602499E+01
   0.93350   0.30764163E+01
   0.93450   0.31517396E+01
   0.93550   0.31064036E+01
   0.93650   0.30324874E+01
   0.93750   0.30139260E+01
   0.93850   0.29724989E+01
   0.93950   0.29246032E+01
   0.94050   0.28771865E+01
   0.94150   0.28580680E+01
   0.94250   0.29020920E+01
   0.94350   0.29602714E+01
   0.94450   0.29635119E+01
   0.94550   0.29095130E+01
   0.94650   0.28338182E+01
   0.94750   0.27611814E+01
   0.94850   0.27041371E+01
   0.94950   0.26845508E+01
   0.95050   0.27098703E+01
   0.95150   0.26886628E+01
   0.95250   0.25556166E+01
   0.95350   0.24223757E+01
   0.95450   0.23460374E+01
   0.95550   0.23103800E+01
   0.95650   0.23615758E+01
   0.95750   0.25190094E+01
   0.95850   0.27352810E+01
   0.95950   0.29416707E+01
   0.96050   0.30869663E+01
   0.96150   0.31618552E+01
   0.96250   0.32038784E+01
   0.96350   0.32927923E+01
   0.96450   0.34437776E+01
   0.96550   0.36205428E+01
   0.96650   0.37915683E+01
   0.96750   0.39323189E+01
   0.96850   0.40341344E+01
   0.96950   0.40936489E+01
   0.97050   0.41195617E+01
   0.97150   0.41294889E+01
   0.97250   0.41199207E+01
   0.97350   0.40742874E+01
   0.97450   0.40048780E+01
   0.97550   0.39504237E+01
   0.97650   0.39369678E+01
   0.97750   0.39580038E+01
   0.97850   0.39916537E+01
   0.97950   0.40195241E+01
   0.98050   0.40365186E+01
   0.98150   0.40488791E+01
   0.98250   0.40672526E+01
   0.98350   0.40983047E+01
   0.98450   0.41410284E+01
   0.98550   0.41893106E+01
   0.98650   0.42348900E+01
   0.98750   0.42701516E+01
   0.98850   0.42904954E+01
   0.98950   0.42946353E+01
   0.99050   0.42851553E+01
   0.99150   0.42689328E+01
   0.99250   0.42499995E+01
   0.99350   0.42300243E+01
   0.99450   0.42101536E+01
   0.99550   0.41903110E+01
   0.99650   0.41705852E+01
   0.99750   0.41510696E+01
   0.99850   0.41316261E+01
   0.99950   0.41127930E+01
