# Transmission, k-averaged
# Date: 2021-05-13
#   E [eV]           T [G0]
   0.00050   0.10442829E+00
   0.00150   0.66427521E-01
   0.00250   0.67863353E-01
   0.00350   0.16032571E-01
   0.00450   0.11359231E-01
   0.00550   0.27337672E-01
   0.00650   0.77369581E-02
   0.00750   0.76048803E-02
   0.00850   0.39173175E-01
   0.00950   0.41619497E-02
   0.01050   0.57416782E-02
   0.01150   0.72159462E-01
   0.01250   0.53936569E-02
   0.01350   0.30142656E-02
   0.01450   0.59730411E-02
   0.01550   0.66322319E-01
   0.01650   0.66229934E-02
   0.01750   0.27483080E-02
   0.01850   0.29237564E-02
   0.01950   0.78722462E-02
   0.02050   0.65385550E-01
   0.02150   0.63522104E-02
   0.02250   0.25438911E-02
   0.02350   0.21701506E-02
   0.02450   0.34359735E-02
   0.02550   0.14642963E-01
   0.02650   0.31283129E-01
   0.02750   0.42027598E-02
   0.02850   0.19697805E-02
   0.02950   0.16718233E-02
   0.03050   0.23400385E-02
   0.03150   0.66812551E-02
   0.03250   0.66851512E-01
   0.03350   0.71127145E-02
   0.03450   0.24492906E-02
   0.03550   0.17232387E-02
   0.03650   0.19330076E-02
   0.03750   0.34881798E-02
   0.03850   0.13269125E-01
   0.03950   0.54934502E-01
   0.04050   0.94612567E-02
   0.04150   0.44197515E-02
   0.04250   0.36634349E-02
   0.04350   0.45858589E-02
   0.04450   0.86642494E-02
   0.04550   0.19539263E-01
   0.04650   0.18770725E-01
   0.04750   0.10872847E-01
   0.04850   0.73265345E-02
   0.04950   0.60460675E-02
   0.05050   0.58446657E-02
   0.05150   0.63179517E-02
   0.05250   0.72452123E-02
   0.05350   0.82443738E-02
   0.05450   0.87235589E-02
   0.05550   0.84098810E-02
   0.05650   0.76549300E-02
   0.05750   0.69212108E-02
   0.05850   0.64219343E-02
   0.05950   0.61839679E-02
   0.06050   0.61611552E-02
   0.06150   0.62791198E-02
   0.06250   0.64451341E-02
   0.06350   0.65619061E-02
   0.06450   0.65596672E-02
   0.06550   0.64265593E-02
   0.06650   0.62056561E-02
   0.06750   0.59611620E-02
   0.06850   0.57458929E-02
   0.06950   0.55885343E-02
   0.07050   0.54956423E-02
   0.07150   0.54580644E-02
   0.07250   0.54569044E-02
   0.07350   0.54688463E-02
   0.07450   0.54717795E-02
   0.07550   0.54504299E-02
   0.07650   0.54001077E-02
   0.07750   0.53267092E-02
   0.07850   0.52431147E-02
   0.07950   0.51641189E-02
   0.08050   0.51022470E-02
   0.08150   0.50654956E-02
   0.08250   0.50567985E-02
   0.08350   0.50745453E-02
   0.08450   0.51136650E-02
   0.08550   0.51670843E-02
   0.08650   0.52274787E-02
   0.08750   0.52890927E-02
   0.08850   0.53490386E-02
   0.08950   0.54067434E-02
   0.09050   0.54567126E-02
   0.09150   0.54474319E-02
   0.09250   0.51980838E-02
   0.09350   0.47932798E-02
   0.09450   0.44346028E-02
   0.09550   0.41369312E-02
   0.09650   0.38847406E-02
   0.09750   0.36649075E-02
   0.09850   0.34685000E-02
   0.09950   0.32898556E-02
   0.10050   0.31256285E-02
   0.10150   0.29739984E-02
   0.10250   0.28340325E-02
   0.10350   0.27052010E-02
   0.10450   0.25870486E-02
   0.10550   0.24790068E-02
   0.10650   0.23803210E-02
   0.10750   0.22900612E-02
   0.10850   0.22071810E-02
   0.10950   0.21306006E-02
   0.11050   0.20592930E-02
   0.11150   0.19923565E-02
   0.11250   0.19290673E-02
   0.11350   0.18689017E-02
   0.11450   0.18115321E-02
   0.11550   0.17567973E-02
   0.11650   0.17046575E-02
   0.11750   0.16551411E-02
   0.11850   0.16082958E-02
   0.11950   0.15641470E-02
   0.12050   0.15226712E-02
   0.12150   0.14837842E-02
   0.12250   0.14473411E-02
   0.12350   0.14131487E-02
   0.12450   0.13809832E-02
   0.12550   0.13506117E-02
   0.12650   0.13218140E-02
   0.12750   0.12944000E-02
   0.12850   0.12682220E-02
   0.12950   0.12431809E-02
   0.13050   0.12192245E-02
   0.13150   0.11963409E-02
   0.13250   0.11745471E-02
   0.13350   0.11538754E-02
   0.13450   0.11343603E-02
   0.13550   0.11160271E-02
   0.13650   0.10988832E-02
   0.13750   0.10829141E-02
   0.13850   0.10680824E-02
   0.13950   0.10543310E-02
   0.14050   0.10415887E-02
   0.14150   0.10297778E-02
   0.14250   0.10188217E-02
   0.14350   0.10086523E-02
   0.14450   0.99921634E-03
   0.14550   0.99047914E-03
   0.14650   0.98242552E-03
   0.14750   0.97505888E-03
   0.14850   0.96839748E-03
   0.14950   0.96246885E-03
   0.15050   0.95730420E-03
   0.15150   0.95293159E-03
   0.15250   0.94937091E-03
   0.15350   0.94662927E-03
   0.15450   0.94469852E-03
   0.15550   0.94355439E-03
   0.15650   0.94315765E-03
   0.15750   0.94345660E-03
   0.15850   0.94439072E-03
   0.15950   0.94589498E-03
   0.16050   0.94790407E-03
   0.16150   0.95035596E-03
   0.16250   0.95319399E-03
   0.16350   0.95636718E-03
   0.16450   0.95982832E-03
   0.16550   0.96352911E-03
   0.16650   0.96741196E-03
   0.16750   0.97139709E-03
   0.16850   0.97536203E-03
   0.16950   0.97910594E-03
   0.17050   0.98228129E-03
   0.17150   0.98424312E-03
   0.17250   0.98366302E-03
   0.17350   0.97735925E-03
   0.17450   0.95599389E-03
   0.17550   0.89170964E-03
   0.17650   0.78195421E-03
   0.17750   0.68840414E-03
   0.17850   0.61790930E-03
   0.17950   0.56274631E-03
   0.18050   0.51787082E-03
   0.18150   0.48029184E-03
   0.18250   0.44814250E-03
   0.18350   0.42018978E-03
   0.18450   0.39557987E-03
   0.18550   0.37369796E-03
   0.18650   0.35408698E-03
   0.18750   0.33639782E-03
   0.18850   0.32035765E-03
   0.18950   0.30574901E-03
   0.19050   0.29239565E-03
   0.19150   0.28015257E-03
   0.19250   0.26889908E-03
   0.19350   0.25853360E-03
   0.19450   0.24896979E-03
   0.19550   0.24013380E-03
   0.19650   0.23196197E-03
   0.19750   0.22439903E-03
   0.19850   0.21739680E-03
   0.19950   0.21091288E-03
   0.20050   0.20490987E-03
   0.20150   0.19935449E-03
   0.20250   0.19421692E-03
   0.20350   0.18947027E-03
   0.20450   0.18509019E-03
   0.20550   0.18105439E-03
   0.20650   0.17734240E-03
   0.20750   0.17393536E-03
   0.20850   0.17081574E-03
   0.20950   0.16796720E-03
   0.21050   0.16537445E-03
   0.21150   0.16302301E-03
   0.21250   0.16089896E-03
   0.21350   0.15898890E-03
   0.21450   0.15728065E-03
   0.21550   0.15576911E-03
   0.21650   0.15449584E-03
   0.21750   0.15379167E-03
   0.21850   0.15424656E-03
   0.21950   0.15538746E-03
   0.22050   0.15688708E-03
   0.22150   0.15872400E-03
   0.22250   0.16093034E-03
   0.22350   0.16355116E-03
   0.22450   0.16664089E-03
   0.22550   0.17026605E-03
   0.22650   0.17451012E-03
   0.22750   0.17948078E-03
   0.22850   0.18532078E-03
   0.22950   0.19222453E-03
   0.23050   0.20046408E-03
   0.23150   0.21042605E-03
   0.23250   0.22263131E-03
   0.23350   0.23740485E-03
   0.23450   0.25123463E-03
   0.23550   0.25143224E-03
   0.23650   0.24267408E-03
   0.23750   0.23299552E-03
   0.23850   0.22399968E-03
   0.23950   0.21586481E-03
   0.24050   0.20852366E-03
   0.24150   0.20187440E-03
   0.24250   0.19582272E-03
   0.24350   0.19028891E-03
   0.24450   0.18520719E-03
   0.24550   0.18052345E-03
   0.24650   0.17619309E-03
   0.24750   0.17217910E-03
   0.24850   0.16845070E-03
   0.24950   0.16498211E-03
   0.25050   0.16175167E-03
   0.25150   0.15874115E-03
   0.25250   0.15593511E-03
   0.25350   0.15332043E-03
   0.25450   0.15088600E-03
   0.25550   0.14862226E-03
   0.25650   0.14652105E-03
   0.25750   0.14457530E-03
   0.25850   0.14277888E-03
   0.25950   0.14112645E-03
   0.26050   0.13961324E-03
   0.26150   0.13823503E-03
   0.26250   0.13698795E-03
   0.26350   0.13586842E-03
   0.26450   0.13487315E-03
   0.26550   0.13399890E-03
   0.26650   0.13324260E-03
   0.26750   0.13260123E-03
   0.26850   0.13207177E-03
   0.26950   0.13165124E-03
   0.27050   0.13133665E-03
   0.27150   0.13112507E-03
   0.27250   0.13101360E-03
   0.27350   0.13099948E-03
   0.27450   0.13108006E-03
   0.27550   0.13125295E-03
   0.27650   0.13151605E-03
   0.27750   0.13186771E-03
   0.27850   0.13230673E-03
   0.27950   0.13283260E-03
   0.28050   0.13344557E-03
   0.28150   0.13414680E-03
   0.28250   0.13493853E-03
   0.28350   0.13582427E-03
   0.28450   0.13680903E-03
   0.28550   0.13789954E-03
   0.28650   0.13910451E-03
   0.28750   0.14043496E-03
   0.28850   0.14190459E-03
   0.28950   0.14353012E-03
   0.29050   0.14533161E-03
   0.29150   0.14733261E-03
   0.29250   0.14955961E-03
   0.29350   0.15203947E-03
   0.29450   0.15479098E-03
   0.29550   0.15779730E-03
   0.29650   0.16090774E-03
   0.29750   0.16342306E-03
   0.29850   0.16215003E-03
   0.29950   0.15055975E-03
   0.30050   0.13574146E-03
   0.30150   0.12381069E-03
   0.30250   0.11449507E-03
   0.30350   0.10708145E-03
   0.30450   0.10108318E-03
   0.30550   0.96184405E-04
   0.30650   0.92174923E-04
   0.30750   0.88910863E-04
   0.30850   0.86291751E-04
   0.30950   0.84246880E-04
   0.31050   0.82726823E-04
   0.31150   0.81697966E-04
   0.31250   0.81138925E-04
   0.31350   0.81038037E-04
   0.31450   0.81391598E-04
   0.31550   0.82202583E-04
   0.31650   0.83479528E-04
   0.31750   0.85235632E-04
   0.31850   0.87487722E-04
   0.31950   0.90255147E-04
   0.32050   0.93558250E-04
   0.32150   0.97416356E-04
   0.32250   0.10184486E-03
   0.32350   0.10685112E-03
   0.32450   0.11242842E-03
   0.32550   0.11854734E-03
   0.32650   0.12514336E-03
   0.32750   0.13209903E-03
   0.32850   0.13921916E-03
   0.32950   0.14619688E-03
   0.33050   0.15256980E-03
   0.33150   0.15766974E-03
   0.33250   0.16057915E-03
   0.33350   0.16013098E-03
   0.33450   0.15502720E-03
   0.33550   0.14419279E-03
   0.33650   0.12744796E-03
   0.33750   0.10630662E-03
   0.33850   0.84159437E-04
   0.33950   0.65010972E-04
   0.34050   0.51408824E-04
   0.34150   0.43703527E-04
   0.34250   0.41141153E-04
   0.34350   0.42955115E-04
   0.34450   0.48501417E-04
   0.34550   0.57051962E-04
   0.34650   0.67765322E-04
   0.34750   0.79805955E-04
   0.34850   0.92461218E-04
   0.34950   0.10519780E-03
   0.35050   0.11766693E-03
   0.35150   0.12968303E-03
   0.35250   0.14119361E-03
   0.35350   0.15224965E-03
   0.35450   0.16298013E-03
   0.35550   0.17357152E-03
   0.35650   0.18425196E-03
   0.35750   0.19527932E-03
   0.35850   0.20693235E-03
   0.35950   0.21950429E-03
   0.36050   0.23330361E-03
   0.36150   0.24871647E-03
   0.36250   0.26676300E-03
   0.36350   0.28946705E-03
   0.36450   0.31557551E-03
   0.36550   0.34324982E-03
   0.36650   0.37101840E-03
   0.36750   0.39657459E-03
   0.36850   0.41614822E-03
   0.36950   0.42406280E-03
   0.37050   0.41269403E-03
   0.37150   0.37367750E-03
   0.37250   0.30301418E-03
   0.37350   0.21895583E-03
   0.37450   0.20956500E-03
   0.37550   0.42590874E-03
   0.37650   0.73095527E-03
   0.37750   0.86284452E-03
   0.37850   0.91004622E-03
   0.37950   0.10646099E-02
   0.38050   0.13624933E-02
   0.38150   0.16761438E-02
   0.38250   0.16723332E-02
   0.38350   0.13688613E-02
   0.38450   0.10674776E-02
   0.38550   0.84860856E-03
   0.38650   0.71874494E-03
   0.38750   0.66799775E-03
   0.38850   0.68522064E-03
   0.38950   0.76516403E-03
   0.39050   0.91705838E-03
   0.39150   0.11230947E-02
   0.39250   0.34009924E-03
   0.39350   0.49198372E-03
   0.39450   0.14336533E-02
   0.39550   0.13257646E-02
   0.39650   0.52304647E-03
   0.39750   0.24619692E-02
   0.39850   0.68978597E-02
   0.39950   0.34558484E-02
   0.40050   0.15283459E-02
   0.40150   0.12906672E-02
   0.40250   0.12454264E-02
   0.40350   0.11633779E-02
   0.40450   0.10299996E-02
   0.40550   0.92751166E-03
   0.40650   0.88395155E-03
   0.40750   0.86841057E-03
   0.40850   0.86044759E-03
   0.40950   0.85943419E-03
   0.41050   0.87037595E-03
   0.41150   0.89244946E-03
   0.41250   0.91825979E-03
   0.41350   0.93692483E-03
   0.41450   0.93339366E-03
   0.41550   0.91049145E-03
   0.41650   0.88755280E-03
   0.41750   0.86708734E-03
   0.41850   0.84704865E-03
   0.41950   0.82570140E-03
   0.42050   0.80240762E-03
   0.42150   0.77742658E-03
   0.42250   0.75137313E-03
   0.42350   0.72479132E-03
   0.42450   0.69803011E-03
   0.42550   0.67132385E-03
   0.42650   0.64490444E-03
   0.42750   0.61905268E-03
   0.42850   0.59408281E-03
   0.42950   0.57029229E-03
   0.43050   0.54791174E-03
   0.43150   0.52708009E-03
   0.43250   0.50785352E-03
   0.43350   0.49024023E-03
   0.43450   0.47424101E-03
   0.43550   0.45987533E-03
   0.43650   0.44718382E-03
   0.43750   0.43621054E-03
   0.43850   0.42697805E-03
   0.43950   0.41946667E-03
   0.44050   0.41360618E-03
   0.44150   0.40927890E-03
   0.44250   0.40633033E-03
   0.44350   0.40458125E-03
   0.44450   0.40383689E-03
   0.44550   0.40389239E-03
   0.44650   0.40453527E-03
   0.44750   0.40554869E-03
   0.44850   0.40671820E-03
   0.44950   0.40784304E-03
   0.45050   0.40875009E-03
   0.45150   0.40930611E-03
   0.45250   0.40942492E-03
   0.45350   0.40906772E-03
   0.45450   0.40823832E-03
   0.45550   0.40697699E-03
   0.45650   0.40535579E-03
   0.45750   0.40347717E-03
   0.45850   0.40147459E-03
   0.45950   0.39951381E-03
   0.46050   0.39779290E-03
   0.46150   0.39654018E-03
   0.46250   0.39600951E-03
   0.46350   0.39647240E-03
   0.46450   0.39820600E-03
   0.46550   0.40147681E-03
   0.46650   0.40652044E-03
   0.46750   0.41352148E-03
   0.46850   0.42259798E-03
   0.46950   0.43379821E-03
   0.47050   0.44711554E-03
   0.47150   0.46252779E-03
   0.47250   0.48007231E-03
   0.47350   0.49999700E-03
   0.47450   0.52313862E-03
   0.47550   0.55210450E-03
   0.47650   0.59389416E-03
   0.47750   0.61643438E-03
   0.47850   0.58754033E-03
   0.47950   0.59900421E-03
   0.48050   0.61920303E-03
   0.48150   0.63988194E-03
   0.48250   0.65956899E-03
   0.48350   0.67776430E-03
   0.48450   0.69416757E-03
   0.48550   0.70856151E-03
   0.48650   0.72079583E-03
   0.48750   0.73078234E-03
   0.48850   0.73848857E-03
   0.48950   0.74392755E-03
   0.49050   0.74714754E-03
   0.49150   0.74822438E-03
   0.49250   0.74726116E-03
   0.49350   0.74439653E-03
   0.49450   0.73983183E-03
   0.49550   0.73390064E-03
   0.49650   0.72729070E-03
   0.49750   0.72200038E-03
   0.49850   0.72456687E-03
   0.49950   0.73911215E-03
   0.50050   0.76298043E-03
   0.50150   0.80491841E-03
   0.50250   0.89340034E-03
   0.50350   0.10756485E-02
   0.50450   0.11277756E-02
   0.50550   0.95245108E-03
   0.50650   0.86639816E-03
   0.50750   0.84146357E-03
   0.50850   0.84170705E-03
   0.50950   0.85447181E-03
   0.51050   0.87529066E-03
   0.51150   0.90258749E-03
   0.51250   0.93599287E-03
   0.51350   0.97577134E-03
   0.51450   0.10226310E-02
   0.51550   0.10776891E-02
   0.51650   0.11425097E-02
   0.51750   0.12191165E-02
   0.51850   0.13095692E-02
   0.51950   0.14124388E-02
   0.52050   0.14983698E-02
   0.52150   0.14763908E-02
   0.52250   0.13949686E-02
   0.52350   0.13244436E-02
   0.52450   0.12709319E-02
   0.52550   0.12311983E-02
   0.52650   0.12023010E-02
   0.52750   0.11822853E-02
   0.52850   0.11700218E-02
   0.52950   0.11650574E-02
   0.53050   0.11674803E-02
   0.53150   0.11772342E-02
   0.53250   0.11882616E-02
   0.53350   0.11631898E-02
   0.53450   0.10911940E-02
   0.53550   0.10149733E-02
   0.53650   0.94255892E-03
   0.53750   0.87105564E-03
   0.53850   0.80252887E-03
   0.53950   0.70311537E-03
   0.54050   0.60846139E-03
   0.54150   0.75029890E-03
   0.54250   0.73442014E-03
   0.54350   0.69925637E-03
   0.54450   0.67333807E-03
   0.54550   0.70716219E-03
   0.54650   0.13693755E-02
   0.54750   0.37723673E-02
   0.54850   0.79583406E-03
   0.54950   0.44925732E-03
   0.55050   0.11473707E-02
   0.55150   0.20167178E-02
   0.55250   0.71166665E-02
   0.55350   0.25707273E-01
   0.55450   0.96969008E-02
   0.55550   0.83446130E-02
   0.55650   0.57750735E-02
   0.55750   0.44346876E-02
   0.55850   0.41970941E-02
   0.55950   0.36955350E-02
   0.56050   0.35699354E-02
   0.56150   0.35537593E-02
   0.56250   0.30998359E-02
   0.56350   0.27639368E-02
   0.56450   0.26451433E-02
   0.56550   0.25268828E-02
   0.56650   0.23397096E-02
   0.56750   0.21876877E-02
   0.56850   0.21264607E-02
   0.56950   0.21323010E-02
   0.57050   0.21478073E-02
   0.57150   0.21225265E-02
   0.57250   0.20639347E-02
   0.57350   0.20121622E-02
   0.57450   0.19858964E-02
   0.57550   0.19735666E-02
   0.57650   0.19534582E-02
   0.57750   0.19165844E-02
   0.57850   0.18715556E-02
   0.57950   0.18307370E-02
   0.58050   0.17973853E-02
   0.58150   0.17639506E-02
   0.58250   0.17187488E-02
   0.58350   0.16551047E-02
   0.58450   0.15759757E-02
   0.58550   0.14906955E-02
   0.58650   0.14082856E-02
   0.58750   0.13333623E-02
   0.58850   0.12659490E-02
   0.58950   0.12034466E-02
   0.59050   0.11431094E-02
   0.59150   0.10839306E-02
   0.59250   0.10271560E-02
   0.59350   0.97537943E-03
   0.59450   0.93108800E-03
   0.59550   0.89563854E-03
   0.59650   0.86899701E-03
   0.59750   0.85001806E-03
   0.59850   0.83695230E-03
   0.59950   0.82798884E-03
   0.60050   0.82170474E-03
   0.60150   0.81729988E-03
   0.60250   0.81454741E-03
   0.60350   0.81351789E-03
   0.60450   0.81424275E-03
   0.60550   0.81648852E-03
   0.60650   0.81972667E-03
   0.60750   0.82328659E-03
   0.60850   0.82661206E-03
   0.60950   0.82951988E-03
   0.61050   0.83236652E-03
   0.61150   0.83607493E-03
   0.61250   0.84203208E-03
   0.61350   0.85192942E-03
   0.61450   0.86764549E-03
   0.61550   0.89122140E-03
   0.61650   0.92448457E-03
   0.61750   0.96317753E-03
   0.61850   0.96743886E-03
   0.61950   0.92223979E-03
   0.62050   0.87162165E-03
   0.62150   0.83164976E-03
   0.62250   0.81017020E-03
   0.62350   0.79792365E-03
   0.62450   0.78146526E-03
   0.62550   0.76265028E-03
   0.62650   0.74363797E-03
   0.62750   0.72539004E-03
   0.62850   0.70830202E-03
   0.62950   0.69253362E-03
   0.63050   0.67814958E-03
   0.63150   0.66517357E-03
   0.63250   0.65360393E-03
   0.63350   0.64341491E-03
   0.63450   0.63455518E-03
   0.63550   0.62694971E-03
   0.63650   0.62050624E-03
   0.63750   0.61512738E-03
   0.63850   0.61072456E-03
   0.63950   0.60723309E-03
   0.64050   0.60462405E-03
   0.64150   0.60291175E-03
   0.64250   0.60215592E-03
   0.64350   0.60245994E-03
   0.64450   0.60396694E-03
   0.64550   0.60685707E-03
   0.64650   0.61134930E-03
   0.64750   0.61771274E-03
   0.64850   0.62629260E-03
   0.64950   0.63756458E-03
   0.65050   0.65224804E-03
   0.65150   0.67157042E-03
   0.65250   0.69800700E-03
   0.65350   0.73797710E-03
   0.65450   0.81622507E-03
   0.65550   0.11014235E-02
   0.65650   0.17747043E-02
   0.65750   0.49296040E-02
   0.65850   0.92112331E-03
   0.65950   0.95016003E-03
   0.66050   0.10663122E-02
   0.66150   0.12466635E-02
   0.66250   0.15666289E-02
   0.66350   0.23126658E-02
   0.66450   0.41554505E-02
   0.66550   0.59100948E-02
   0.66650   0.97840838E-02
   0.66750   0.23365974E-01
   0.66850   0.21428030E-01
   0.66950   0.22276368E-01
   0.67050   0.30034309E-01
   0.67150   0.22133028E-01
   0.67250   0.14395249E-01
   0.67350   0.13102634E-01
   0.67450   0.12982358E-01
   0.67550   0.12326938E-01
   0.67650   0.10384784E-01
   0.67750   0.96067628E-02
   0.67850   0.10193517E-01
   0.67950   0.11450764E-01
   0.68050   0.12854880E-01
   0.68150   0.14108585E-01
   0.68250   0.14697220E-01
   0.68350   0.14514956E-01
   0.68450   0.14162315E-01
   0.68550   0.13990626E-01
   0.68650   0.13667706E-01
   0.68750   0.12379880E-01
   0.68850   0.10459517E-01
   0.68950   0.86675063E-02
   0.69050   0.71433457E-02
   0.69150   0.59375730E-02
   0.69250   0.50331256E-02
   0.69350   0.43726363E-02
   0.69450   0.38992881E-02
   0.69550   0.35698526E-02
   0.69650   0.33516630E-02
   0.69750   0.32184911E-02
   0.69850   0.31503139E-02
   0.69950   0.31339652E-02
   0.70050   0.31606343E-02
   0.70150   0.32211267E-02
   0.70250   0.33024610E-02
   0.70350   0.33878020E-02
   0.70450   0.34580992E-02
   0.70550   0.34905046E-02
   0.70650   0.34870838E-02
   0.70750   0.34700814E-02
   0.70850   0.34400586E-02
   0.70950   0.33942298E-02
   0.71050   0.33312871E-02
   0.71150   0.32515863E-02
   0.71250   0.31570196E-02
   0.71350   0.30506745E-02
   0.71450   0.29362920E-02
   0.71550   0.28176913E-02
   0.71650   0.26983288E-02
   0.71750   0.25810492E-02
   0.71850   0.24680132E-02
   0.71950   0.23607519E-02
   0.72050   0.22603031E-02
   0.72150   0.21673793E-02
   0.72250   0.20825197E-02
   0.72350   0.20061948E-02
   0.72450   0.19388412E-02
   0.72550   0.18808473E-02
   0.72650   0.18325119E-02
   0.72750   0.17940219E-02
   0.72850   0.17654998E-02
   0.72950   0.17472258E-02
   0.73050   0.17403510E-02
   0.73150   0.17491984E-02
   0.73250   0.17829821E-02
   0.73350   0.18259977E-02
   0.73450   0.18582717E-02
   0.73550   0.18823200E-02
   0.73650   0.19011693E-02
   0.73750   0.19163792E-02
   0.73850   0.19288410E-02
   0.73950   0.19391917E-02
   0.74050   0.19480041E-02
   0.74150   0.19558906E-02
   0.74250   0.19635919E-02
   0.74350   0.19721072E-02
   0.74450   0.19829473E-02
   0.74550   0.19987070E-02
   0.74650   0.20245446E-02
   0.74750   0.20727841E-02
   0.74850   0.21814501E-02
   0.74950   0.25224998E-02
   0.75050   0.44484925E-02
   0.75150   0.90902345E-02
   0.75250   0.59824004E-02
   0.75350   0.67553842E-02
   0.75450   0.12731064E-01
   0.75550   0.32684568E-01
   0.75650   0.19663302E-01
   0.75750   0.10033767E-01
   0.75850   0.78420853E-02
   0.75950   0.80933878E-02
   0.76050   0.10283170E-01
   0.76150   0.15757438E-01
   0.76250   0.28275536E-01
   0.76350   0.49508791E-01
   0.76450   0.47972351E-01
   0.76550   0.37127070E-01
   0.76650   0.36651812E-01
   0.76750   0.39322153E-01
   0.76850   0.32774705E-01
   0.76950   0.24228847E-01
   0.77050   0.19510845E-01
   0.77150   0.16959045E-01
   0.77250   0.15595516E-01
   0.77350   0.15186798E-01
   0.77450   0.13328929E-01
   0.77550   0.11189992E-01
   0.77650   0.10501065E-01
   0.77750   0.10702502E-01
   0.77850   0.10841254E-01
   0.77950   0.10339045E-01
   0.78050   0.94760107E-02
   0.78150   0.87874513E-02
   0.78250   0.84008239E-02
   0.78350   0.81204847E-02
   0.78450   0.77616707E-02
   0.78550   0.73659671E-02
   0.78650   0.70741102E-02
   0.78750   0.69255373E-02
   0.78850   0.68691201E-02
   0.78950   0.68230359E-02
   0.79050   0.67155468E-02
   0.79150   0.65346304E-02
   0.79250   0.63405926E-02
   0.79350   0.62006046E-02
   0.79450   0.61376826E-02
   0.79550   0.61423578E-02
   0.79650   0.61979350E-02
   0.79750   0.62890276E-02
   0.79850   0.63953116E-02
   0.79950   0.64838189E-02
   0.80050   0.65176371E-02
   0.80150   0.64818817E-02
   0.80250   0.63958042E-02
   0.80350   0.62940046E-02
   0.80450   0.62026395E-02
   0.80550   0.61320807E-02
   0.80650   0.60814177E-02
   0.80750   0.60453196E-02
   0.80850   0.60195690E-02
   0.80950   0.60044513E-02
   0.81050   0.60052718E-02
   0.81150   0.60299761E-02
   0.81250   0.60854279E-02
   0.81350   0.61744312E-02
   0.81450   0.62946468E-02
   0.81550   0.64394628E-02
   0.81650   0.66003813E-02
   0.81750   0.67702481E-02
   0.81850   0.69464687E-02
   0.81950   0.71335007E-02
   0.82050   0.73446017E-02
   0.82150   0.76042050E-02
   0.82250   0.79550641E-02
   0.82350   0.84834723E-02
   0.82450   0.94198007E-02
   0.82550   0.11663283E-01
   0.82650   0.20135008E-01
   0.82750   0.22483222E-01
   0.82850   0.13448740E-01
   0.82950   0.11982395E-01
   0.83050   0.11900836E-01
   0.83150   0.12176672E-01
   0.83250   0.12605171E-01
   0.83350   0.13156088E-01
   0.83450   0.13865780E-01
   0.83550   0.14825293E-01
   0.83650   0.16210061E-01
   0.83750   0.18365420E-01
   0.83850   0.21990672E-01
   0.83950   0.28289519E-01
   0.84050   0.37083156E-01
   0.84150   0.39973482E-01
   0.84250   0.33488140E-01
   0.84350   0.27515555E-01
   0.84450   0.24840267E-01
   0.84550   0.25036786E-01
   0.84650   0.27095420E-01
   0.84750   0.25696861E-01
   0.84850   0.21168357E-01
   0.84950   0.18934363E-01
   0.85050   0.18257992E-01
   0.85150   0.18572381E-01
   0.85250   0.19937247E-01
   0.85350   0.23136325E-01
   0.85450   0.30643605E-01
   0.85550   0.46134762E-01
   0.85650   0.50003357E-01
   0.85750   0.39564751E-01
   0.85850   0.38356461E-01
   0.85950   0.43412130E-01
   0.86050   0.46553183E-01
   0.86150   0.42885475E-01
   0.86250   0.35616308E-01
   0.86350   0.30600723E-01
   0.86450   0.28480884E-01
   0.86550   0.28354587E-01
   0.86650   0.29460758E-01
   0.86750   0.30382691E-01
   0.86850   0.29446959E-01
   0.86950   0.27186064E-01
   0.87050   0.25010185E-01
   0.87150   0.23491610E-01
   0.87250   0.22895668E-01
   0.87350   0.23828039E-01
   0.87450   0.26850564E-01
   0.87550   0.30207152E-01
   0.87650   0.32324918E-01
   0.87750   0.33742953E-01
   0.87850   0.33982795E-01
   0.87950   0.31899862E-01
   0.88050   0.28000157E-01
   0.88150   0.24335770E-01
   0.88250   0.22141477E-01
   0.88350   0.21391213E-01
   0.88450   0.21634635E-01
   0.88550   0.22544065E-01
   0.88650   0.24057262E-01
   0.88750   0.26267014E-01
   0.88850   0.29144200E-01
   0.88950   0.32226540E-01
   0.89050   0.34711901E-01
   0.89150   0.36115795E-01
   0.89250   0.36614407E-01
   0.89350   0.36778569E-01
   0.89450   0.38156502E-01
   0.89550   0.45211792E-01
   0.89650   0.42751167E-01
   0.89750   0.41126560E-01
   0.89850   0.41208092E-01
   0.89950   0.42332288E-01
   0.90050   0.44701681E-01
   0.90150   0.48393931E-01
   0.90250   0.52322548E-01
   0.90350   0.56195378E-01
   0.90450   0.60219735E-01
   0.90550   0.64607777E-01
   0.90650   0.69632769E-01
   0.90750   0.75797275E-01
   0.90850   0.84007844E-01
   0.90950   0.94616979E-01
   0.91050   0.10110135E+00
   0.91150   0.97171746E-01
   0.91250   0.94237648E-01
   0.91350   0.95780924E-01
   0.91450   0.10000410E+00
   0.91550   0.10521691E+00
   0.91650   0.10964643E+00
   0.91750   0.11201250E+00
   0.91850   0.11311255E+00
   0.91950   0.11530010E+00
   0.92050   0.11906721E+00
   0.92150   0.12241186E+00
   0.92250   0.12594815E+00
   0.92350   0.13050193E+00
   0.92450   0.13568926E+00
   0.92550   0.14125092E+00
   0.92650   0.14687327E+00
   0.92750   0.15185894E+00
   0.92850   0.15559445E+00
   0.92950   0.15859839E+00
   0.93050   0.16275045E+00
   0.93150   0.17052233E+00
   0.93250   0.18419302E+00
   0.93350   0.20221138E+00
   0.93450   0.21404457E+00
   0.93550   0.21487823E+00
   0.93650   0.20945345E+00
   0.93750   0.20398144E+00
   0.93850   0.20316739E+00
   0.93950   0.20796870E+00
   0.94050   0.21750760E+00
   0.94150   0.23037149E+00
   0.94250   0.24487109E+00
   0.94350   0.25912750E+00
   0.94450   0.27078569E+00
   0.94550   0.27748817E+00
   0.94650   0.27870113E+00
   0.94750   0.27617687E+00
   0.94850   0.27302322E+00
   0.94950   0.27134305E+00
   0.95050   0.27196389E+00
   0.95150   0.28263083E+00
   0.95250   0.32647613E+00
   0.95350   0.33511135E+00
   0.95450   0.32919222E+00
   0.95550   0.32926416E+00
   0.95650   0.33354396E+00
   0.95750   0.33755696E+00
   0.95850   0.34006438E+00
   0.95950   0.34089220E+00
   0.96050   0.34037331E+00
   0.96150   0.33981529E+00
   0.96250   0.34172654E+00
   0.96350   0.34810230E+00
   0.96450   0.35776734E+00
   0.96550   0.36782715E+00
   0.96650   0.37694579E+00
   0.96750   0.38550222E+00
   0.96850   0.39441499E+00
   0.96950   0.40452135E+00
   0.97050   0.41640714E+00
   0.97150   0.43035558E+00
   0.97250   0.44633260E+00
   0.97350   0.46405181E+00
   0.97450   0.48312744E+00
   0.97550   0.50329167E+00
   0.97650   0.52473825E+00
   0.97750   0.54744667E+00
   0.97850   0.57095301E+00
   0.97950   0.59447825E+00
   0.98050   0.61675590E+00
   0.98150   0.63623512E+00
   0.98250   0.65221804E+00
   0.98350   0.66580391E+00
   0.98450   0.67847842E+00
   0.98550   0.69028395E+00
   0.98650   0.70233518E+00
   0.98750   0.71663368E+00
   0.98850   0.73455089E+00
   0.98950   0.76049751E+00
   0.99050   0.78544456E+00
   0.99150   0.80493838E+00
   0.99250   0.81871396E+00
   0.99350   0.82675827E+00
   0.99450   0.82884300E+00
   0.99550   0.82798851E+00
   0.99650   0.82596362E+00
   0.99750   0.82230294E+00
   0.99850   0.81624687E+00
   0.99950   0.80528259E+00
