# Transmission, k-averaged
# Date: 2021-05-13
#   E [eV]           T [G0]
   0.00050   0.22040954E+00
   0.00150   0.13192540E+00
   0.00250   0.19110966E+00
   0.00350   0.16553020E+00
   0.00450   0.16778934E+00
   0.00550   0.14758652E+00
   0.00650   0.10151202E+00
   0.00750   0.94286241E-01
   0.00850   0.60453154E-01
   0.00950   0.30599037E-01
   0.01050   0.31225368E-01
   0.01150   0.29316017E-01
   0.01250   0.12832658E-01
   0.01350   0.97196102E-01
   0.01450   0.14296355E-01
   0.01550   0.12000572E-01
   0.01650   0.75723842E-01
   0.01750   0.19358199E-01
   0.01850   0.89482656E-02
   0.01950   0.16557280E-01
   0.02050   0.10101368E+00
   0.02150   0.14766521E-01
   0.02250   0.74042738E-02
   0.02350   0.10124069E-01
   0.02450   0.48296332E-01
   0.02550   0.35276890E-01
   0.02650   0.82793059E-02
   0.02750   0.56503010E-02
   0.02850   0.80074212E-02
   0.02950   0.31010313E-01
   0.03050   0.55465803E-01
   0.03150   0.90929447E-02
   0.03250   0.46445369E-02
   0.03350   0.44458820E-02
   0.03450   0.77366582E-02
   0.03550   0.36992103E-01
   0.03650   0.37628025E-01
   0.03750   0.70914342E-02
   0.03850   0.36327334E-02
   0.03950   0.32029471E-02
   0.04050   0.45863669E-02
   0.04150   0.13279355E-01
   0.04250   0.61214961E-01
   0.04350   0.89600263E-02
   0.04450   0.33154683E-02
   0.04550   0.22978596E-02
   0.04650   0.23209162E-02
   0.04750   0.30351791E-02
   0.04850   0.45330995E-02
   0.04950   0.51908968E-02
   0.05050   0.34771308E-02
   0.05150   0.20783097E-02
   0.05250   0.14323246E-02
   0.05350   0.11723812E-02
   0.05450   0.11199636E-02
   0.05550   0.12148396E-02
   0.05650   0.14232349E-02
   0.05750   0.16276536E-02
   0.05850   0.15961797E-02
   0.05950   0.13133420E-02
   0.06050   0.10131112E-02
   0.06150   0.81159157E-03
   0.06250   0.70533698E-03
   0.06350   0.67075738E-03
   0.06450   0.69170230E-03
   0.06550   0.75454835E-03
   0.06650   0.83130604E-03
   0.06750   0.86769840E-03
   0.06850   0.82016812E-03
   0.06950   0.71286393E-03
   0.07050   0.60334761E-03
   0.07150   0.52354095E-03
   0.07250   0.47896209E-03
   0.07350   0.46619211E-03
   0.07450   0.48085561E-03
   0.07550   0.51718892E-03
   0.07650   0.56281936E-03
   0.07750   0.59468538E-03
   0.07850   0.58968231E-03
   0.07950   0.54773298E-03
   0.08050   0.49180730E-03
   0.08150   0.44435091E-03
   0.08250   0.41610195E-03
   0.08350   0.41010615E-03
   0.08450   0.42701967E-03
   0.08550   0.46669340E-03
   0.08650   0.52574015E-03
   0.08750   0.59175288E-03
   0.08850   0.64084510E-03
   0.08950   0.65174088E-03
   0.09050   0.62689499E-03
   0.09150   0.58574841E-03
   0.09250   0.54083555E-03
   0.09350   0.51351264E-03
   0.09450   0.51294069E-03
   0.09550   0.53215632E-03
   0.09650   0.56155334E-03
   0.09750   0.58923441E-03
   0.09850   0.60354680E-03
   0.09950   0.59904810E-03
   0.10050   0.57958334E-03
   0.10150   0.55442372E-03
   0.10250   0.53223653E-03
   0.10350   0.51824667E-03
   0.10450   0.51443046E-03
   0.10550   0.52048778E-03
   0.10650   0.53441123E-03
   0.10750   0.55263063E-03
   0.10850   0.57026866E-03
   0.10950   0.58212510E-03
   0.11050   0.58443833E-03
   0.11150   0.57644496E-03
   0.11250   0.56047278E-03
   0.11350   0.54049940E-03
   0.11450   0.52036560E-03
   0.11550   0.50268380E-03
   0.11650   0.48856228E-03
   0.11750   0.47775570E-03
   0.11850   0.46890840E-03
   0.11950   0.45980961E-03
   0.12050   0.44776927E-03
   0.12150   0.43026623E-03
   0.12250   0.40586104E-03
   0.12350   0.37506147E-03
   0.12450   0.34068045E-03
   0.12550   0.30754154E-03
   0.12650   0.28194892E-03
   0.12750   0.27149045E-03
   0.12850   0.28508858E-03
   0.12950   0.33180430E-03
   0.13050   0.41582505E-03
   0.13150   0.52877062E-03
   0.13250   0.64965326E-03
   0.13350   0.75756171E-03
   0.13450   0.84205560E-03
   0.13550   0.90204884E-03
   0.13650   0.94085699E-03
   0.13750   0.96307637E-03
   0.13850   0.97317307E-03
   0.13950   0.97488886E-03
   0.14050   0.97108446E-03
   0.14150   0.96381630E-03
   0.14250   0.95450180E-03
   0.14350   0.94408478E-03
   0.14450   0.93316997E-03
   0.14550   0.92212285E-03
   0.14650   0.91114396E-03
   0.14750   0.90032624E-03
   0.14850   0.88970060E-03
   0.14950   0.87927259E-03
   0.15050   0.86904911E-03
   0.15150   0.85905573E-03
   0.15250   0.84934331E-03
   0.15350   0.83998503E-03
   0.15450   0.83106663E-03
   0.15550   0.82267204E-03
   0.15650   0.81486878E-03
   0.15750   0.80769538E-03
   0.15850   0.80115348E-03
   0.15950   0.79520582E-03
   0.16050   0.78978034E-03
   0.16150   0.78477937E-03
   0.16250   0.78009244E-03
   0.16350   0.77561097E-03
   0.16450   0.77124120E-03
   0.16550   0.76691346E-03
   0.16650   0.76258474E-03
   0.16750   0.75823202E-03
   0.16850   0.75383415E-03
   0.16950   0.74933702E-03
   0.17050   0.74459158E-03
   0.17150   0.73923147E-03
   0.17250   0.73238998E-03
   0.17350   0.72189094E-03
   0.17450   0.70140383E-03
   0.17550   0.65284054E-03
   0.17650   0.57661749E-03
   0.17750   0.51313860E-03
   0.17850   0.46567363E-03
   0.17950   0.42874075E-03
   0.18050   0.39888083E-03
   0.18150   0.37405913E-03
   0.18250   0.35300784E-03
   0.18350   0.33488896E-03
   0.18450   0.31912082E-03
   0.18550   0.30528300E-03
   0.18650   0.29306137E-03
   0.18750   0.28221455E-03
   0.18850   0.27255283E-03
   0.18950   0.26392436E-03
   0.19050   0.25620626E-03
   0.19150   0.24929843E-03
   0.19250   0.24311972E-03
   0.19350   0.23760535E-03
   0.19450   0.23270540E-03
   0.19550   0.22838419E-03
   0.19650   0.22462037E-03
   0.19750   0.22140771E-03
   0.19850   0.21875711E-03
   0.19950   0.21669987E-03
   0.20050   0.21529333E-03
   0.20150   0.21463020E-03
   0.20250   0.21485431E-03
   0.20350   0.21618750E-03
   0.20450   0.21897732E-03
   0.20550   0.22378500E-03
   0.20650   0.23155693E-03
   0.20750   0.24398128E-03
   0.20850   0.26429363E-03
   0.20950   0.29929099E-03
   0.21050   0.36502993E-03
   0.21150   0.50530653E-03
   0.21250   0.85385144E-03
   0.21350   0.16178241E-02
   0.21450   0.15140163E-02
   0.21550   0.78733981E-03
   0.21650   0.49150951E-03
   0.21750   0.39722619E-03
   0.21850   0.38320775E-03
   0.21950   0.38273245E-03
   0.22050   0.38249945E-03
   0.22150   0.38233757E-03
   0.22250   0.38269858E-03
   0.22350   0.38386352E-03
   0.22450   0.38600480E-03
   0.22550   0.38925442E-03
   0.22650   0.39374441E-03
   0.22750   0.39963427E-03
   0.22850   0.40713573E-03
   0.22950   0.41654211E-03
   0.23050   0.42826839E-03
   0.23150   0.44289988E-03
   0.23250   0.46117912E-03
   0.23350   0.48326110E-03
   0.23450   0.50182047E-03
   0.23550   0.49417268E-03
   0.23650   0.47123752E-03
   0.23750   0.44775626E-03
   0.23850   0.42629990E-03
   0.23950   0.40697743E-03
   0.24050   0.38953446E-03
   0.24150   0.37369810E-03
   0.24250   0.35923446E-03
   0.24350   0.34595214E-03
   0.24450   0.33369559E-03
   0.24550   0.32233787E-03
   0.24650   0.31177464E-03
   0.24750   0.30191938E-03
   0.24850   0.29269973E-03
   0.24950   0.28405464E-03
   0.25050   0.27593219E-03
   0.25150   0.26828778E-03
   0.25250   0.26108263E-03
   0.25350   0.25428276E-03
   0.25450   0.24785812E-03
   0.25550   0.24178177E-03
   0.25650   0.23602947E-03
   0.25750   0.23057919E-03
   0.25850   0.22541080E-03
   0.25950   0.22050593E-03
   0.26050   0.21584769E-03
   0.26150   0.21142063E-03
   0.26250   0.20721061E-03
   0.26350   0.20320481E-03
   0.26450   0.19939151E-03
   0.26550   0.19576019E-03
   0.26650   0.19230138E-03
   0.26750   0.18900656E-03
   0.26850   0.18586814E-03
   0.26950   0.18287932E-03
   0.27050   0.18003403E-03
   0.27150   0.17732677E-03
   0.27250   0.17475261E-03
   0.27350   0.17230703E-03
   0.27450   0.16998584E-03
   0.27550   0.16778518E-03
   0.27650   0.16570142E-03
   0.27750   0.16373112E-03
   0.27850   0.16187107E-03
   0.27950   0.16011819E-03
   0.28050   0.15846963E-03
   0.28150   0.15692270E-03
   0.28250   0.15547493E-03
   0.28350   0.15412399E-03
   0.28450   0.15286777E-03
   0.28550   0.15170424E-03
   0.28650   0.15063136E-03
   0.28750   0.14964692E-03
   0.28850   0.14874819E-03
   0.28950   0.14793138E-03
   0.29050   0.14719056E-03
   0.29150   0.14651603E-03
   0.29250   0.14589082E-03
   0.29350   0.14528378E-03
   0.29450   0.14463415E-03
   0.29550   0.14381325E-03
   0.29650   0.14251305E-03
   0.29750   0.13985566E-03
   0.29850   0.13294842E-03
   0.29950   0.11816247E-03
   0.30050   0.10331925E-03
   0.30150   0.92086462E-04
   0.30250   0.83452520E-04
   0.30350   0.76559525E-04
   0.30450   0.70892398E-04
   0.30550   0.66131630E-04
   0.30650   0.62067505E-04
   0.30750   0.58555466E-04
   0.30850   0.55491870E-04
   0.30950   0.52800046E-04
   0.31050   0.50421870E-04
   0.31150   0.48312428E-04
   0.31250   0.46436508E-04
   0.31350   0.44766246E-04
   0.31450   0.43279491E-04
   0.31550   0.41958672E-04
   0.31650   0.40790008E-04
   0.31750   0.39762959E-04
   0.31850   0.38869890E-04
   0.31950   0.38105911E-04
   0.32050   0.37468828E-04
   0.32150   0.36959314E-04
   0.32250   0.36581234E-04
   0.32350   0.36342219E-04
   0.32450   0.36254554E-04
   0.32550   0.36336562E-04
   0.32650   0.36614649E-04
   0.32750   0.37126425E-04
   0.32850   0.37925547E-04
   0.32950   0.39089289E-04
   0.33050   0.40730869E-04
   0.33150   0.43019976E-04
   0.33250   0.46218294E-04
   0.33350   0.50743507E-04
   0.33450   0.57289650E-04
   0.33550   0.67063993E-04
   0.33650   0.82271574E-04
   0.33750   0.10711345E-03
   0.33850   0.14958940E-03
   0.33950   0.22208782E-03
   0.34050   0.32144209E-03
   0.34150   0.36122999E-03
   0.34250   0.27923391E-03
   0.34350   0.18312721E-03
   0.34450   0.12264789E-03
   0.34550   0.88279448E-04
   0.34650   0.68194320E-04
   0.34750   0.55825953E-04
   0.34850   0.47820973E-04
   0.34950   0.42421703E-04
   0.35050   0.38661059E-04
   0.35150   0.35980014E-04
   0.35250   0.34040801E-04
   0.35350   0.32631568E-04
   0.35450   0.31615513E-04
   0.35550   0.30902709E-04
   0.35650   0.30434243E-04
   0.35750   0.30173680E-04
   0.35850   0.30104118E-04
   0.35950   0.30232386E-04
   0.36050   0.30610783E-04
   0.36150   0.31423813E-04
   0.36250   0.33268214E-04
   0.36350   0.36385783E-04
   0.36450   0.39412938E-04
   0.36550   0.42069241E-04
   0.36650   0.44504723E-04
   0.36750   0.46839537E-04
   0.36850   0.49157574E-04
   0.36950   0.51523064E-04
   0.37050   0.53991138E-04
   0.37150   0.56614423E-04
   0.37250   0.59447979E-04
   0.37350   0.62553925E-04
   0.37450   0.66006767E-04
   0.37550   0.69900598E-04
   0.37650   0.74359777E-04
   0.37750   0.79555874E-04
   0.37850   0.85734879E-04
   0.37950   0.93254675E-04
   0.38050   0.10256247E-03
   0.38150   0.11324431E-03
   0.38250   0.11904400E-03
   0.38350   0.11714565E-03
   0.38450   0.11331620E-03
   0.38550   0.10944557E-03
   0.38650   0.10587341E-03
   0.38750   0.10264069E-03
   0.38850   0.99726611E-04
   0.38950   0.97099881E-04
   0.39050   0.94731127E-04
   0.39150   0.92595612E-04
   0.39250   0.90673420E-04
   0.39350   0.88948953E-04
   0.39450   0.87410459E-04
   0.39550   0.86049593E-04
   0.39650   0.84861160E-04
   0.39750   0.83842977E-04
   0.39850   0.82995932E-04
   0.39950   0.82324143E-04
   0.40050   0.81835322E-04
   0.40150   0.81541373E-04
   0.40250   0.81459191E-04
   0.40350   0.81611877E-04
   0.40450   0.82030347E-04
   0.40550   0.82755556E-04
   0.40650   0.83841507E-04
   0.40750   0.85359105E-04
   0.40850   0.87400716E-04
   0.40950   0.90083980E-04
   0.41050   0.93549184E-04
   0.41150   0.97927768E-04
   0.41250   0.10319073E-03
   0.41350   0.10851468E-03
   0.41450   0.11186067E-03
   0.41550   0.11782025E-03
   0.41650   0.13176946E-03
   0.41750   0.15375720E-03
   0.41850   0.17849366E-03
   0.41950   0.18855110E-03
   0.42050   0.16568680E-03
   0.42150   0.12245377E-03
   0.42250   0.83898398E-04
   0.42350   0.57775378E-04
   0.42450   0.41440788E-04
   0.42550   0.31234522E-04
   0.42650   0.24683324E-04
   0.42750   0.20332845E-04
   0.42850   0.17345697E-04
   0.42950   0.15231878E-04
   0.43050   0.13696484E-04
   0.43150   0.12556462E-04
   0.43250   0.11694717E-04
   0.43350   0.11034203E-04
   0.43450   0.10522921E-04
   0.43550   0.10124945E-04
   0.43650   0.98149385E-05
   0.43750   0.95746991E-05
   0.43850   0.93909384E-05
   0.43950   0.92538185E-05
   0.44050   0.91559741E-05
   0.44150   0.90918484E-05
   0.44250   0.90572257E-05
   0.44350   0.90489166E-05
   0.44450   0.90645281E-05
   0.44550   0.91023076E-05
   0.44650   0.91610336E-05
   0.44750   0.92399478E-05
   0.44850   0.93387125E-05
   0.44950   0.94573988E-05
   0.45050   0.95964924E-05
   0.45150   0.97569291E-05
   0.45250   0.99401577E-05
   0.45350   0.10148223E-04
   0.45450   0.10383900E-04
   0.45550   0.10650871E-04
   0.45650   0.10953962E-04
   0.45750   0.11299472E-04
   0.45850   0.11695621E-04
   0.45950   0.12153160E-04
   0.46050   0.12686235E-04
   0.46150   0.13313588E-04
   0.46250   0.14060307E-04
   0.46350   0.14960377E-04
   0.46450   0.16060520E-04
   0.46550   0.17426106E-04
   0.46650   0.19150517E-04
   0.46750   0.21370415E-04
   0.46850   0.24291494E-04
   0.46950   0.28233249E-04
   0.47050   0.33708980E-04
   0.47150   0.41569980E-04
   0.47250   0.53253851E-04
   0.47350   0.71120805E-04
   0.47450   0.98428500E-04
   0.47550   0.13715909E-03
   0.47650   0.18266714E-03
   0.47750   0.22152680E-03
   0.47850   0.22600917E-03
   0.47950   0.17290634E-03
   0.48050   0.10373441E-03
   0.48150   0.57086661E-04
   0.48250   0.32663778E-04
   0.48350   0.23594635E-04
   0.48450   0.28863991E-04
   0.48550   0.55960678E-04
   0.48650   0.11592220E-03
   0.48750   0.17205329E-03
   0.48850   0.15837280E-03
   0.48950   0.11785131E-03
   0.49050   0.87232278E-04
   0.49150   0.68523281E-04
   0.49250   0.58525780E-04
   0.49350   0.55925848E-04
   0.49450   0.62198065E-04
   0.49550   0.81688850E-04
   0.49650   0.12182741E-03
   0.49750   0.19049179E-03
   0.49850   0.28630398E-03
   0.49950   0.37177594E-03
   0.50050   0.40818559E-03
   0.50150   0.40516828E-03
   0.50250   0.39151390E-03
   0.50350   0.40467305E-03
   0.50450   0.54726750E-03
   0.50550   0.13519594E-02
   0.50650   0.36202846E-02
   0.50750   0.27160782E-02
   0.50850   0.16556116E-02
   0.50950   0.12591847E-02
   0.51050   0.81247935E-03
   0.51150   0.21811693E-02
   0.51250   0.47894958E-02
   0.51350   0.47010356E-02
   0.51450   0.46446105E-02
   0.51550   0.43309019E-02
   0.51650   0.40186285E-02
   0.51750   0.37814362E-02
   0.51850   0.36394831E-02
   0.51950   0.34554428E-02
   0.52050   0.32956451E-02
   0.52150   0.31341563E-02
   0.52250   0.29986857E-02
   0.52350   0.29264365E-02
   0.52450   0.28578260E-02
   0.52550   0.27808556E-02
   0.52650   0.27351549E-02
   0.52750   0.27280236E-02
   0.52850   0.27256804E-02
   0.52950   0.27071815E-02
   0.53050   0.26865415E-02
   0.53150   0.26711621E-02
   0.53250   0.26056054E-02
   0.53350   0.23470172E-02
   0.53450   0.19867332E-02
   0.53550   0.16933362E-02
   0.53650   0.14691359E-02
   0.53750   0.12919158E-02
   0.53850   0.11442902E-02
   0.53950   0.10164825E-02
   0.54050   0.90462784E-03
   0.54150   0.80746604E-03
   0.54250   0.72370091E-03
   0.54350   0.65113365E-03
   0.54450   0.58716326E-03
   0.54550   0.52965479E-03
   0.54650   0.47741114E-03
   0.54750   0.43003904E-03
   0.54850   0.38748313E-03
   0.54950   0.34961550E-03
   0.55050   0.31607697E-03
   0.55150   0.28634968E-03
   0.55250   0.25994002E-03
   0.55350   0.23653684E-03
   0.55450   0.21604665E-03
   0.55550   0.19849317E-03
   0.55650   0.18385869E-03
   0.55750   0.17196988E-03
   0.55850   0.16248025E-03
   0.55950   0.15493485E-03
   0.56050   0.14886733E-03
   0.56150   0.14388420E-03
   0.56250   0.13970987E-03
   0.56350   0.13618784E-03
   0.56450   0.13324943E-03
   0.56550   0.13086959E-03
   0.56650   0.12902812E-03
   0.56750   0.12768689E-03
   0.56850   0.12678454E-03
   0.56950   0.12624453E-03
   0.57050   0.12598971E-03
   0.57150   0.12595706E-03
   0.57250   0.12610733E-03
   0.57350   0.12642735E-03
   0.57450   0.12692525E-03
   0.57550   0.12762182E-03
   0.57650   0.12854146E-03
   0.57750   0.12970650E-03
   0.57850   0.13113659E-03
   0.57950   0.13285382E-03
   0.58050   0.13489270E-03
   0.58150   0.13731432E-03
   0.58250   0.14022431E-03
   0.58350   0.14379616E-03
   0.58450   0.14830272E-03
   0.58550   0.15415753E-03
   0.58650   0.16194851E-03
   0.58750   0.17236054E-03
   0.58850   0.18560208E-03
   0.58950   0.19953959E-03
   0.59050   0.20747168E-03
   0.59150   0.20300817E-03
   0.59250   0.19005033E-03
   0.59350   0.17710884E-03
   0.59450   0.16784924E-03
   0.59550   0.16214230E-03
   0.59650   0.15898483E-03
   0.59750   0.15753941E-03
   0.59850   0.15725655E-03
   0.59950   0.15779698E-03
   0.60050   0.15895203E-03
   0.60150   0.16059150E-03
   0.60250   0.16263389E-03
   0.60350   0.16503080E-03
   0.60450   0.16775986E-03
   0.60550   0.17082212E-03
   0.60650   0.17424172E-03
   0.60750   0.17806639E-03
   0.60850   0.18236831E-03
   0.60950   0.18724577E-03
   0.61050   0.19282592E-03
   0.61150   0.19927087E-03
   0.61250   0.20678814E-03
   0.61350   0.21564770E-03
   0.61450   0.22620276E-03
   0.61550   0.23888002E-03
   0.61650   0.25387868E-03
   0.61750   0.26853054E-03
   0.61850   0.26790847E-03
   0.61950   0.25103817E-03
   0.62050   0.23407604E-03
   0.62150   0.22123042E-03
   0.62250   0.21502317E-03
   0.62350   0.21404530E-03
   0.62450   0.21312891E-03
   0.62550   0.21172184E-03
   0.62650   0.21012784E-03
   0.62750   0.20853152E-03
   0.62850   0.20702244E-03
   0.62950   0.20564270E-03
   0.63050   0.20441212E-03
   0.63150   0.20334026E-03
   0.63250   0.20243184E-03
   0.63350   0.20168905E-03
   0.63450   0.20111218E-03
   0.63550   0.20069988E-03
   0.63650   0.20044914E-03
   0.63750   0.20035545E-03
   0.63850   0.20041312E-03
   0.63950   0.20061566E-03
   0.64050   0.20095619E-03
   0.64150   0.20142808E-03
   0.64250   0.20202521E-03
   0.64350   0.20274245E-03
   0.64450   0.20357587E-03
   0.64550   0.20452285E-03
   0.64650   0.20558226E-03
   0.64750   0.20675440E-03
   0.64850   0.20804090E-03
   0.64950   0.20944465E-03
   0.65050   0.21096955E-03
   0.65150   0.21262027E-03
   0.65250   0.21440207E-03
   0.65350   0.21632045E-03
   0.65450   0.21838100E-03
   0.65550   0.22058928E-03
   0.65650   0.22295082E-03
   0.65750   0.22547120E-03
   0.65850   0.22815644E-03
   0.65950   0.23101333E-03
   0.66050   0.23405009E-03
   0.66150   0.23727703E-03
   0.66250   0.24070701E-03
   0.66350   0.24435628E-03
   0.66450   0.24824482E-03
   0.66550   0.25239665E-03
   0.66650   0.25684026E-03
   0.66750   0.26160848E-03
   0.66850   0.26673888E-03
   0.66950   0.27227387E-03
   0.67050   0.27826155E-03
   0.67150   0.28475682E-03
   0.67250   0.29182373E-03
   0.67350   0.29953881E-03
   0.67450   0.30799664E-03
   0.67550   0.31731758E-03
   0.67650   0.32765942E-03
   0.67750   0.33923425E-03
   0.67850   0.35233353E-03
   0.67950   0.36736755E-03
   0.68050   0.38493072E-03
   0.68150   0.40592381E-03
   0.68250   0.43182215E-03
   0.68350   0.46545549E-03
   0.68450   0.51465479E-03
   0.68550   0.63480315E-03
   0.68650   0.70304755E-03
   0.68750   0.59077714E-03
   0.68850   0.56683307E-03
   0.68950   0.55735046E-03
   0.69050   0.57002541E-03
   0.69150   0.60743210E-03
   0.69250   0.67472510E-03
   0.69350   0.78229513E-03
   0.69450   0.94688212E-03
   0.69550   0.11712217E-02
   0.69650   0.13504562E-02
   0.69750   0.13894457E-02
   0.69850   0.14859010E-02
   0.69950   0.17394025E-02
   0.70050   0.21899070E-02
   0.70150   0.29889115E-02
   0.70250   0.35848117E-02
   0.70350   0.39683967E-02
   0.70450   0.18737925E-01
   0.70550   0.60740590E-01
   0.70650   0.13464771E-01
   0.70750   0.77461540E-02
   0.70850   0.52942098E-02
   0.70950   0.39909617E-02
   0.71050   0.32019725E-02
   0.71150   0.26846586E-02
   0.71250   0.23226494E-02
   0.71350   0.20542515E-02
   0.71450   0.18478290E-02
   0.71550   0.16856348E-02
   0.71650   0.15564675E-02
   0.71750   0.14525104E-02
   0.71850   0.13678645E-02
   0.71950   0.12983909E-02
   0.72050   0.12412755E-02
   0.72150   0.11943337E-02
   0.72250   0.11557217E-02
   0.72350   0.11239473E-02
   0.72450   0.10978355E-02
   0.72550   0.10764025E-02
   0.72650   0.10587499E-02
   0.72750   0.10440506E-02
   0.72850   0.10316238E-02
   0.72950   0.10210564E-02
   0.73050   0.10124142E-02
   0.73150   0.10069945E-02
   0.73250   0.10090095E-02
   0.73350   0.10162046E-02
   0.73450   0.10206685E-02
   0.73550   0.10220123E-02
   0.73650   0.10210191E-02
   0.73750   0.10182039E-02
   0.73850   0.10139027E-02
   0.73950   0.10083806E-02
   0.74050   0.10018954E-02
   0.74150   0.99472376E-03
   0.74250   0.98716153E-03
   0.74350   0.97950839E-03
   0.74450   0.97204745E-03
   0.74550   0.96503494E-03
   0.74650   0.95870090E-03
   0.74750   0.95326104E-03
   0.74850   0.94893272E-03
   0.74950   0.94594678E-03
   0.75050   0.94455149E-03
   0.75150   0.94500609E-03
   0.75250   0.94756740E-03
   0.75350   0.95247332E-03
   0.75450   0.95992873E-03
   0.75550   0.97009761E-03
   0.75650   0.98310306E-03
   0.75750   0.99903485E-03
   0.75850   0.10179632E-02
   0.75950   0.10399538E-02
   0.76050   0.10650821E-02
   0.76150   0.10934431E-02
   0.76250   0.11251564E-02
   0.76350   0.11603660E-02
   0.76450   0.11992384E-02
   0.76550   0.12419607E-02
   0.76650   0.12887426E-02
   0.76750   0.13398241E-02
   0.76850   0.13954910E-02
   0.76950   0.14560987E-02
   0.77050   0.15221057E-02
   0.77150   0.15941150E-02
   0.77250   0.16729289E-02
   0.77350   0.17596179E-02
   0.77450   0.18556132E-02
   0.77550   0.19628373E-02
   0.77650   0.20838897E-02
   0.77750   0.22223066E-02
   0.77850   0.23828486E-02
   0.77950   0.25713083E-02
   0.78050   0.27900699E-02
   0.78150   0.30004752E-02
   0.78250   0.30007099E-02
   0.78350   0.27962986E-02
   0.78450   0.25930360E-02
   0.78550   0.24263540E-02
   0.78650   0.22916633E-02
   0.78750   0.21821219E-02
   0.78850   0.20924672E-02
   0.78950   0.20189183E-02
   0.79050   0.19587546E-02
   0.79150   0.19099885E-02
   0.79250   0.18711408E-02
   0.79350   0.18410938E-02
   0.79450   0.18189895E-02
   0.79550   0.18041618E-02
   0.79650   0.17960885E-02
   0.79750   0.17943580E-02
   0.79850   0.17986457E-02
   0.79950   0.18086982E-02
   0.80050   0.18243212E-02
   0.80150   0.18453735E-02
   0.80250   0.18717611E-02
   0.80350   0.19034346E-02
   0.80450   0.19403879E-02
   0.80550   0.19826570E-02
   0.80650   0.20303195E-02
   0.80750   0.20834962E-02
   0.80850   0.21423539E-02
   0.80950   0.22071106E-02
   0.81050   0.22780462E-02
   0.81150   0.23555197E-02
   0.81250   0.24399939E-02
   0.81350   0.25320745E-02
   0.81450   0.26325625E-02
   0.81550   0.27425308E-02
   0.81650   0.28634323E-02
   0.81750   0.29972577E-02
   0.81850   0.31467825E-02
   0.81950   0.33159798E-02
   0.82050   0.35108048E-02
   0.82150   0.37409565E-02
   0.82250   0.40250602E-02
   0.82350   0.44173291E-02
   0.82450   0.54690149E-02
   0.82550   0.50071101E-02
   0.82650   0.56825308E-02
   0.82750   0.65692044E-02
   0.82850   0.77902805E-02
   0.82950   0.98391576E-02
   0.83050   0.13419393E-01
   0.83150   0.16850332E-01
   0.83250   0.16222849E-01
   0.83350   0.17379683E-01
   0.83450   0.22123260E-01
   0.83550   0.32646712E-01
   0.83650   0.67271464E-01
   0.83750   0.17062178E+00
   0.83850   0.34016606E+00
   0.83950   0.43987784E+00
   0.84050   0.27172524E+00
   0.84150   0.15469785E+00
   0.84250   0.10154650E+00
   0.84350   0.77540047E-01
   0.84450   0.63317813E-01
   0.84550   0.53661376E-01
   0.84650   0.47620520E-01
   0.84750   0.43006327E-01
   0.84850   0.38597260E-01
   0.84950   0.34988794E-01
   0.85050   0.32225676E-01
   0.85150   0.30011717E-01
   0.85250   0.28190369E-01
   0.85350   0.26715191E-01
   0.85450   0.25539283E-01
   0.85550   0.24606645E-01
   0.85650   0.23879606E-01
   0.85750   0.23334973E-01
   0.85850   0.22949502E-01
   0.85950   0.22697600E-01
   0.86050   0.22556985E-01
   0.86150   0.22511838E-01
   0.86250   0.22550756E-01
   0.86350   0.22663262E-01
   0.86450   0.22838036E-01
   0.86550   0.23062669E-01
   0.86650   0.23324065E-01
   0.86750   0.23609959E-01
   0.86850   0.23911960E-01
   0.86950   0.24228455E-01
   0.87050   0.24564385E-01
   0.87150   0.24926959E-01
   0.87250   0.25319804E-01
   0.87350   0.25739795E-01
   0.87450   0.26178909E-01
   0.87550   0.26629942E-01
   0.87650   0.27091864E-01
   0.87750   0.27571058E-01
   0.87850   0.28077973E-01
   0.87950   0.28622180E-01
   0.88050   0.29209131E-01
   0.88150   0.29840063E-01
   0.88250   0.30514553E-01
   0.88350   0.31234195E-01
   0.88450   0.32005608E-01
   0.88550   0.32841302E-01
   0.88650   0.33758029E-01
   0.88750   0.34773391E-01
   0.88850   0.35902392E-01
   0.88950   0.37155431E-01
   0.89050   0.38538419E-01
   0.89150   0.40054526E-01
   0.89250   0.41706182E-01
   0.89350   0.43495819E-01
   0.89450   0.45424663E-01
   0.89550   0.47489874E-01
   0.89650   0.49681548E-01
   0.89750   0.51982354E-01
   0.89850   0.54373547E-01
   0.89950   0.56851562E-01
   0.90050   0.59452541E-01
   0.90150   0.62092047E-01
   0.90250   0.64319305E-01
   0.90350   0.66314615E-01
   0.90450   0.68515390E-01
   0.90550   0.70962653E-01
   0.90650   0.73610984E-01
   0.90750   0.76408222E-01
   0.90850   0.79321384E-01
   0.90950   0.82352638E-01
   0.91050   0.85540675E-01
   0.91150   0.88948682E-01
   0.91250   0.92646055E-01
   0.91350   0.96690871E-01
   0.91450   0.10111695E+00
   0.91550   0.10592765E+00
   0.91650   0.11109798E+00
   0.91750   0.11658607E+00
   0.91850   0.12235363E+00
   0.91950   0.12839229E+00
   0.92050   0.13475333E+00
   0.92150   0.14158800E+00
   0.92250   0.14924915E+00
   0.92350   0.15864848E+00
   0.92450   0.18281877E+00
   0.92550   0.16679829E+00
   0.92650   0.17900389E+00
   0.92750   0.19642842E+00
   0.92850   0.22909513E+00
   0.92950   0.24313003E+00
   0.93050   0.26862544E+00
   0.93150   0.30887023E+00
   0.93250   0.36221117E+00
   0.93350   0.41837734E+00
   0.93450   0.48275578E+00
   0.93550   0.56663674E+00
   0.93650   0.66793424E+00
   0.93750   0.75752753E+00
   0.93850   0.81181031E+00
   0.93950   0.80749619E+00
   0.94050   0.75305718E+00
   0.94150   0.71915352E+00
   0.94250   0.74902642E+00
   0.94350   0.75283396E+00
   0.94450   0.71765304E+00
   0.94550   0.69377381E+00
   0.94650   0.69090831E+00
   0.94750   0.66643000E+00
   0.94850   0.63234252E+00
   0.94950   0.62066144E+00
   0.95050   0.63411325E+00
   0.95150   0.66553622E+00
   0.95250   0.69927579E+00
   0.95350   0.71465021E+00
   0.95450   0.70956057E+00
   0.95550   0.70277470E+00
   0.95650   0.70213419E+00
   0.95750   0.70605654E+00
   0.95850   0.71551359E+00
   0.95950   0.72932136E+00
   0.96050   0.74176478E+00
   0.96150   0.74821019E+00
   0.96250   0.74949217E+00
   0.96350   0.74892628E+00
   0.96450   0.75004339E+00
   0.96550   0.75575411E+00
   0.96650   0.76685083E+00
   0.96750   0.78167188E+00
   0.96850   0.79808539E+00
   0.96950   0.81523335E+00
   0.97050   0.83239204E+00
   0.97150   0.84719545E+00
   0.97250   0.85750425E+00
   0.97350   0.86532992E+00
   0.97450   0.87509280E+00
   0.97550   0.88877767E+00
   0.97650   0.90664446E+00
   0.97750   0.92936593E+00
   0.97850   0.95651275E+00
   0.97950   0.98793364E+00
   0.98050   0.10252538E+01
   0.98150   0.10688723E+01
   0.98250   0.11138411E+01
   0.98350   0.11537967E+01
   0.98450   0.11867683E+01
   0.98550   0.12180399E+01
   0.98650   0.12575238E+01
   0.98750   0.13118169E+01
   0.98850   0.13800305E+01
   0.98950   0.14584773E+01
   0.99050   0.15429212E+01
   0.99150   0.16110598E+01
   0.99250   0.16270766E+01
   0.99350   0.15994565E+01
   0.99450   0.15655721E+01
   0.99550   0.15689896E+01
   0.99650   0.16165951E+01
   0.99750   0.16748068E+01
   0.99850   0.17161381E+01
   0.99950   0.17766287E+01
