# Transmission, k-averaged
# Date: 2021-05-13
#   E [eV]           T [G0]
   0.00050   0.49276147E-02
   0.00150   0.10495318E-01
   0.00250   0.50262790E-02
   0.00350   0.60769718E-03
   0.00450   0.37545018E-04
   0.00550   0.30903931E-04
   0.00650   0.29983951E-03
   0.00750   0.16632990E-02
   0.00850   0.33131391E-02
   0.00950   0.33667947E-02
   0.01050   0.49904236E-02
   0.01150   0.55134250E-02
   0.01250   0.25149251E-02
   0.01350   0.18968031E-01
   0.01450   0.27573346E-02
   0.01550   0.22955467E-02
   0.01650   0.14602104E-01
   0.01750   0.38327838E-02
   0.01850   0.18389118E-02
   0.01950   0.35650204E-02
   0.02050   0.23053965E-01
   0.02150   0.36045157E-02
   0.02250   0.19408403E-02
   0.02350   0.28563477E-02
   0.02450   0.14717563E-01
   0.02550   0.11654337E-01
   0.02650   0.29709497E-02
   0.02750   0.22024203E-02
   0.02850   0.33894796E-02
   0.02950   0.14262073E-01
   0.03050   0.27745819E-01
   0.03150   0.49510188E-02
   0.03250   0.27527760E-02
   0.03350   0.28676437E-02
   0.03450   0.54319189E-02
   0.03550   0.28301939E-01
   0.03650   0.31432103E-01
   0.03750   0.64848433E-02
   0.03850   0.36493011E-02
   0.03950   0.35523372E-02
   0.04050   0.56609502E-02
   0.04150   0.18487547E-01
   0.04250   0.98424315E-01
   0.04350   0.17407089E-01
   0.04450   0.85338326E-02
   0.04550   0.85619045E-02
   0.04650   0.11400955E-01
   0.04750   0.17848616E-01
   0.04850   0.30375035E-01
   0.04950   0.38555276E-01
   0.05050   0.28134849E-01
   0.05150   0.18100366E-01
   0.05250   0.13304765E-01
   0.05350   0.11528562E-01
   0.05450   0.11583817E-01
   0.05550   0.13141916E-01
   0.05650   0.16024884E-01
   0.05750   0.18997133E-01
   0.05850   0.19247258E-01
   0.05950   0.16317008E-01
   0.06050   0.12938208E-01
   0.06150   0.10630335E-01
   0.06250   0.94540259E-02
   0.06350   0.91783339E-02
   0.06450   0.96390611E-02
   0.06550   0.10682950E-01
   0.06650   0.11932512E-01
   0.06750   0.12605213E-01
   0.06850   0.12042705E-01
   0.06950   0.10569561E-01
   0.07050   0.90267668E-02
   0.07150   0.78982161E-02
   0.07250   0.72800531E-02
   0.07350   0.71317521E-02
   0.07450   0.73941918E-02
   0.07550   0.79829460E-02
   0.07650   0.87081650E-02
   0.07750   0.92124073E-02
   0.07850   0.91377767E-02
   0.07950   0.84852846E-02
   0.08050   0.76138210E-02
   0.08150   0.68724579E-02
   0.08250   0.64267740E-02
   0.08350   0.63216384E-02
   0.08450   0.65634828E-02
   0.08550   0.71446346E-02
   0.08650   0.80063203E-02
   0.08750   0.89530321E-02
   0.08850   0.96219238E-02
   0.08950   0.97021600E-02
   0.09050   0.92477426E-02
   0.09150   0.85683614E-02
   0.09250   0.78799231E-02
   0.09350   0.74728918E-02
   0.09450   0.74447715E-02
   0.09550   0.76879454E-02
   0.09650   0.80607478E-02
   0.09750   0.83912099E-02
   0.09850   0.85163591E-02
   0.09950   0.83671743E-02
   0.10050   0.80071595E-02
   0.10150   0.75719529E-02
   0.10250   0.71828663E-02
   0.10350   0.69091488E-02
   0.10450   0.67733862E-02
   0.10550   0.67670294E-02
   0.10650   0.68598138E-02
   0.10750   0.70032105E-02
   0.10850   0.71350662E-02
   0.10950   0.71928124E-02
   0.11050   0.71349703E-02
   0.11150   0.69583799E-02
   0.11250   0.66966801E-02
   0.11350   0.64010620E-02
   0.11450   0.61186207E-02
   0.11550   0.58802813E-02
   0.11650   0.56987018E-02
   0.11750   0.55708415E-02
   0.11850   0.54810573E-02
   0.11950   0.54037417E-02
   0.12050   0.53068413E-02
   0.12150   0.51582889E-02
   0.12250   0.49358513E-02
   0.12350   0.46375450E-02
   0.12450   0.42875796E-02
   0.12550   0.39353985E-02
   0.12650   0.36508557E-02
   0.12750   0.35187779E-02
   0.12850   0.36248835E-02
   0.12950   0.40068598E-02
   0.13050   0.45574415E-02
   0.13150   0.49800170E-02
   0.13250   0.49731005E-02
   0.13350   0.44982559E-02
   0.13450   0.37629514E-02
   0.13550   0.30023807E-02
   0.13650   0.23533450E-02
   0.13750   0.18568399E-02
   0.13850   0.15013699E-02
   0.13950   0.12572701E-02
   0.14050   0.10941806E-02
   0.14150   0.98730321E-03
   0.14250   0.91831776E-03
   0.14350   0.87438035E-03
   0.14450   0.84674201E-03
   0.14550   0.82953682E-03
   0.14650   0.81886555E-03
   0.14750   0.81215036E-03
   0.14850   0.80769823E-03
   0.14950   0.80441294E-03
   0.15050   0.80160680E-03
   0.15150   0.79887582E-03
   0.15250   0.79601380E-03
   0.15350   0.79295028E-03
   0.15450   0.78970130E-03
   0.15550   0.78633073E-03
   0.15650   0.78291883E-03
   0.15750   0.77953900E-03
   0.15850   0.77624223E-03
   0.15950   0.77305001E-03
   0.16050   0.76995423E-03
   0.16150   0.76692348E-03
   0.16250   0.76391338E-03
   0.16350   0.76087908E-03
   0.16450   0.75778627E-03
   0.16550   0.75461942E-03
   0.16650   0.75138267E-03
   0.16750   0.74809324E-03
   0.16850   0.74476283E-03
   0.16950   0.74136409E-03
   0.17050   0.73776959E-03
   0.17150   0.73363219E-03
   0.17250   0.72810624E-03
   0.17350   0.71904896E-03
   0.17450   0.70020393E-03
   0.17550   0.65362023E-03
   0.17650   0.57938328E-03
   0.17750   0.51739928E-03
   0.17850   0.47109736E-03
   0.17950   0.43514607E-03
   0.18050   0.40616145E-03
   0.18150   0.38214857E-03
   0.18250   0.36186253E-03
   0.18350   0.34447934E-03
   0.18450   0.32942646E-03
   0.18550   0.31628984E-03
   0.18650   0.30476009E-03
   0.18750   0.29459980E-03
   0.18850   0.28562249E-03
   0.18950   0.27767909E-03
   0.19050   0.27064842E-03
   0.19150   0.26443097E-03
   0.19250   0.25894408E-03
   0.19350   0.25411864E-03
   0.19450   0.24989637E-03
   0.19550   0.24622789E-03
   0.19650   0.24307072E-03
   0.19750   0.24038801E-03
   0.19850   0.23814684E-03
   0.19950   0.23631685E-03
   0.20050   0.23486845E-03
   0.20150   0.23377078E-03
   0.20250   0.23298863E-03
   0.20350   0.23247786E-03
   0.20450   0.23217768E-03
   0.20550   0.23199663E-03
   0.20650   0.23178545E-03
   0.20750   0.23128111E-03
   0.20850   0.22998116E-03
   0.20950   0.22683533E-03
   0.21050   0.21940519E-03
   0.21150   0.20136032E-03
   0.21250   0.15604215E-03
   0.21350   0.74133452E-04
   0.21450   0.85764332E-04
   0.21550   0.17500298E-03
   0.21650   0.22218234E-03
   0.21750   0.23378020E-03
   0.21850   0.22112159E-03
   0.21950   0.20608601E-03
   0.22050   0.19417059E-03
   0.22150   0.18484272E-03
   0.22250   0.17743646E-03
   0.22350   0.17151645E-03
   0.22450   0.16680681E-03
   0.22550   0.16313211E-03
   0.22650   0.16038406E-03
   0.22750   0.15850470E-03
   0.22850   0.15747907E-03
   0.22950   0.15733545E-03
   0.23050   0.15815163E-03
   0.23150   0.16006491E-03
   0.23250   0.16326009E-03
   0.23350   0.16770724E-03
   0.23450   0.17085265E-03
   0.23550   0.16523112E-03
   0.23650   0.15484875E-03
   0.23750   0.14465927E-03
   0.23850   0.13545172E-03
   0.23950   0.12720312E-03
   0.24050   0.11978392E-03
   0.24150   0.11306973E-03
   0.24250   0.10695762E-03
   0.24350   0.10136516E-03
   0.24450   0.96226679E-04
   0.24550   0.91489666E-04
   0.24650   0.87111817E-04
   0.24750   0.83058723E-04
   0.24850   0.79301986E-04
   0.24950   0.75817770E-04
   0.25050   0.72585652E-04
   0.25150   0.69587702E-04
   0.25250   0.66807777E-04
   0.25350   0.64230990E-04
   0.25450   0.61843326E-04
   0.25550   0.59631366E-04
   0.25650   0.57582129E-04
   0.25750   0.55683005E-04
   0.25850   0.53921747E-04
   0.25950   0.52286494E-04
   0.26050   0.50765855E-04
   0.26150   0.49349004E-04
   0.26250   0.48025770E-04
   0.26350   0.46786721E-04
   0.26450   0.45623263E-04
   0.26550   0.44527656E-04
   0.26650   0.43493077E-04
   0.26750   0.42513580E-04
   0.26850   0.41584088E-04
   0.26950   0.40700317E-04
   0.27050   0.39858714E-04
   0.27150   0.39056329E-04
   0.27250   0.38290727E-04
   0.27350   0.37559879E-04
   0.27450   0.36862042E-04
   0.27550   0.36195674E-04
   0.27650   0.35559351E-04
   0.27750   0.34951714E-04
   0.27850   0.34371424E-04
   0.27950   0.33817163E-04
   0.28050   0.33287637E-04
   0.28150   0.32781601E-04
   0.28250   0.32297921E-04
   0.28350   0.31835614E-04
   0.28450   0.31393902E-04
   0.28550   0.30972282E-04
   0.28650   0.30570536E-04
   0.28750   0.30188747E-04
   0.28850   0.29827259E-04
   0.28950   0.29486580E-04
   0.29050   0.29167168E-04
   0.29150   0.28869055E-04
   0.29250   0.28591146E-04
   0.29350   0.28329810E-04
   0.29450   0.28075883E-04
   0.29550   0.27807277E-04
   0.29650   0.27467775E-04
   0.29750   0.26892707E-04
   0.29850   0.25533549E-04
   0.29950   0.22697976E-04
   0.30050   0.19869454E-04
   0.30150   0.17739667E-04
   0.30250   0.16110502E-04
   0.30350   0.14814943E-04
   0.30450   0.13752458E-04
   0.30550   0.12860531E-04
   0.30650   0.12098099E-04
   0.30750   0.11436908E-04
   0.30850   0.10856781E-04
   0.30950   0.10342883E-04
   0.31050   0.98840310E-05
   0.31150   0.94716106E-05
   0.31250   0.90988406E-05
   0.31350   0.87602702E-05
   0.31450   0.84514131E-05
   0.31550   0.81684911E-05
   0.31650   0.79082511E-05
   0.31750   0.76678298E-05
   0.31850   0.74446634E-05
   0.31950   0.72364346E-05
   0.32050   0.70410342E-05
   0.32150   0.68565441E-05
   0.32250   0.66812308E-05
   0.32350   0.65135396E-05
   0.32450   0.63520861E-05
   0.32550   0.61956384E-05
   0.32650   0.60430716E-05
   0.32750   0.58932956E-05
   0.32850   0.57451261E-05
   0.32950   0.55970813E-05
   0.33050   0.54470506E-05
   0.33150   0.52917667E-05
   0.33250   0.51259303E-05
   0.33350   0.49407372E-05
   0.33450   0.47213084E-05
   0.33550   0.44421845E-05
   0.33650   0.40597220E-05
   0.33750   0.35022140E-05
   0.33850   0.26761036E-05
   0.33950   0.15938406E-05
   0.34050   0.78618859E-06
   0.34150   0.69369162E-06
   0.34250   0.10444276E-05
   0.34350   0.21900946E-05
   0.34450   0.33680710E-05
   0.34550   0.42445786E-05
   0.34650   0.48722609E-05
   0.34750   0.53418953E-05
   0.34850   0.57152761E-05
   0.34950   0.60293232E-05
   0.35050   0.63059247E-05
   0.35150   0.65585355E-05
   0.35250   0.67960054E-05
   0.35350   0.70247602E-05
   0.35450   0.72500525E-05
   0.35550   0.74766822E-05
   0.35650   0.77093682E-05
   0.35750   0.79528172E-05
   0.35850   0.82113202E-05
   0.35950   0.84870990E-05
   0.36050   0.87740309E-05
   0.36150   0.90295762E-05
   0.36250   0.90539043E-05
   0.36350   0.86307409E-05
   0.36450   0.81658218E-05
   0.36550   0.78155736E-05
   0.36650   0.75589605E-05
   0.36750   0.73709662E-05
   0.36850   0.72352991E-05
   0.36950   0.71419681E-05
   0.37050   0.70851374E-05
   0.37150   0.70618676E-05
   0.37250   0.70714068E-05
   0.37350   0.71148243E-05
   0.37450   0.71948853E-05
   0.37550   0.73161505E-05
   0.37650   0.74853642E-05
   0.37750   0.77122750E-05
   0.37850   0.80111531E-05
   0.37950   0.84030571E-05
   0.38050   0.89146461E-05
   0.38150   0.95191572E-05
   0.38250   0.98173796E-05
   0.38350   0.96254698E-05
   0.38450   0.93167382E-05
   0.38550   0.90139720E-05
   0.38650   0.87382514E-05
   0.38750   0.84914273E-05
   0.38850   0.82718752E-05
   0.38950   0.80778273E-05
   0.39050   0.79080473E-05
   0.39150   0.77618442E-05
   0.39250   0.76389124E-05
   0.39350   0.75391381E-05
   0.39450   0.74624190E-05
   0.39550   0.74085156E-05
   0.39650   0.73769356E-05
   0.39750   0.73668652E-05
   0.39850   0.73771344E-05
   0.39950   0.74062259E-05
   0.40050   0.74523209E-05
   0.40150   0.75133730E-05
   0.40250   0.75872108E-05
   0.40350   0.76716551E-05
   0.40450   0.77646464E-05
   0.40550   0.78643643E-05
   0.40650   0.79693418E-05
   0.40750   0.80785549E-05
   0.40850   0.81914895E-05
   0.40950   0.83081977E-05
   0.41050   0.84293924E-05
   0.41150   0.85567945E-05
   0.41250   0.86946620E-05
   0.41350   0.88574679E-05
   0.41450   0.90961466E-05
   0.41550   0.94348843E-05
   0.41650   0.98164446E-05
   0.41750   0.10220991E-04
   0.41850   0.10662843E-04
   0.41950   0.11182896E-04
   0.42050   0.11816016E-04
   0.42150   0.12546202E-04
   0.42250   0.13313524E-04
   0.42350   0.14080564E-04
   0.42450   0.14846543E-04
   0.42550   0.15622842E-04
   0.42650   0.16420576E-04
   0.42750   0.17248549E-04
   0.42850   0.18113882E-04
   0.42950   0.19022786E-04
   0.43050   0.19981060E-04
   0.43150   0.20994361E-04
   0.43250   0.22068318E-04
   0.43350   0.23208580E-04
   0.43450   0.24420817E-04
   0.43550   0.25710702E-04
   0.43650   0.27083917E-04
   0.43750   0.28546163E-04
   0.43850   0.30103203E-04
   0.43950   0.31760952E-04
   0.44050   0.33525594E-04
   0.44150   0.35403758E-04
   0.44250   0.37402711E-04
   0.44350   0.39530612E-04
   0.44450   0.41796768E-04
   0.44550   0.44211916E-04
   0.44650   0.46788497E-04
   0.44750   0.49540929E-04
   0.44850   0.52485837E-04
   0.44950   0.55642271E-04
   0.45050   0.59031870E-04
   0.45150   0.62678992E-04
   0.45250   0.66610824E-04
   0.45350   0.70857503E-04
   0.45450   0.75452226E-04
   0.45550   0.80431440E-04
   0.45650   0.85835149E-04
   0.45750   0.91707283E-04
   0.45850   0.98096367E-04
   0.45950   0.10505628E-03
   0.46050   0.11264730E-03
   0.46150   0.12093742E-03
   0.46250   0.13000384E-03
   0.46350   0.13993477E-03
   0.46450   0.15083142E-03
   0.46550   0.16281022E-03
   0.46650   0.17600550E-03
   0.46750   0.19057222E-03
   0.46850   0.20668935E-03
   0.46950   0.22456386E-03
   0.47050   0.24443536E-03
   0.47150   0.26658253E-03
   0.47250   0.29133318E-03
   0.47350   0.31908762E-03
   0.47450   0.35038035E-03
   0.47550   0.38599980E-03
   0.47650   0.42696329E-03
   0.47750   0.47406528E-03
   0.47850   0.52805885E-03
   0.47950   0.59054437E-03
   0.48050   0.66317758E-03
   0.48150   0.74720732E-03
   0.48250   0.84664265E-03
   0.48350   0.96924731E-03
   0.48450   0.11158037E-02
   0.48550   0.12905706E-02
   0.48650   0.14993043E-02
   0.48750   0.17469383E-02
   0.48850   0.20481809E-02
   0.48950   0.24220867E-02
   0.49050   0.28797414E-02
   0.49150   0.34193525E-02
   0.49250   0.40369588E-02
   0.49350   0.48440327E-02
   0.49450   0.58579724E-02
   0.49550   0.69859331E-02
   0.49650   0.81195384E-02
   0.49750   0.90928543E-02
   0.49850   0.97380076E-02
   0.49950   0.99505251E-02
   0.50050   0.98284474E-02
   0.50150   0.96077565E-02
   0.50250   0.94865272E-02
   0.50350   0.96519710E-02
   0.50450   0.10559335E-01
   0.50550   0.25922786E-01
   0.50650   0.13590468E-01
   0.50750   0.26912082E-01
   0.50850   0.19341610E+00
   0.50950   0.90984091E-01
   0.51050   0.27969128E-01
   0.51150   0.22664471E+00
   0.51250   0.58772275E-03
   0.51350   0.23074984E-02
   0.51450   0.18266657E-02
   0.51550   0.21510241E-02
   0.51650   0.26665756E-02
   0.51750   0.32917901E-02
   0.51850   0.41048112E-02
   0.51950   0.47522392E-02
   0.52050   0.50443220E-02
   0.52150   0.48184334E-02
   0.52250   0.43819714E-02
   0.52350   0.40787156E-02
   0.52450   0.39874152E-02
   0.52550   0.41503101E-02
   0.52650   0.46380735E-02
   0.52750   0.54237205E-02
   0.52850   0.63075516E-02
   0.52950   0.70544193E-02
   0.53050   0.75853984E-02
   0.53150   0.79219239E-02
   0.53250   0.79694241E-02
   0.53350   0.74041956E-02
   0.53450   0.64302436E-02
   0.53550   0.55093723E-02
   0.53650   0.47203209E-02
   0.53750   0.40528579E-02
   0.53850   0.34879853E-02
   0.53950   0.30133200E-02
   0.54050   0.26224209E-02
   0.54150   0.23087801E-02
   0.54250   0.20623044E-02
   0.54350   0.18702302E-02
   0.54450   0.17201442E-02
   0.54550   0.16024314E-02
   0.54650   0.15108793E-02
   0.54750   0.14416171E-02
   0.54850   0.13914499E-02
   0.54950   0.13566448E-02
   0.55050   0.13326675E-02
   0.55150   0.13147927E-02
   0.55250   0.12991442E-02
   0.55350   0.12835305E-02
   0.55450   0.12675435E-02
   0.55550   0.12518823E-02
   0.55650   0.12373970E-02
   0.55750   0.12244621E-02
   0.55850   0.12128993E-02
   0.55950   0.12022478E-02
   0.56050   0.11920512E-02
   0.56150   0.11819863E-02
   0.56250   0.11718279E-02
   0.56350   0.11613336E-02
   0.56450   0.11501255E-02
   0.56550   0.11376304E-02
   0.56650   0.11231113E-02
   0.56750   0.11057969E-02
   0.56850   0.10850849E-02
   0.56950   0.10607539E-02
   0.57050   0.10331142E-02
   0.57150   0.10030306E-02
   0.57250   0.97180356E-03
   0.57350   0.94093609E-03
   0.57450   0.91185962E-03
   0.57550   0.88568981E-03
   0.57650   0.86306199E-03
   0.57750   0.84405992E-03
   0.57850   0.82822703E-03
   0.57950   0.81463536E-03
   0.58050   0.80198876E-03
   0.58150   0.78873290E-03
   0.58250   0.77314960E-03
   0.58350   0.75342238E-03
   0.58450   0.72770164E-03
   0.58550   0.69432228E-03
   0.58650   0.65268960E-03
   0.58750   0.60623523E-03
   0.58850   0.56969153E-03
   0.58950   0.57572435E-03
   0.59050   0.64529170E-03
   0.59150   0.72657602E-03
   0.59250   0.76286384E-03
   0.59350   0.76610438E-03
   0.59450   0.75754226E-03
   0.59550   0.74445072E-03
   0.59650   0.72879036E-03
   0.59750   0.71155786E-03
   0.59850   0.69355202E-03
   0.59950   0.67542930E-03
   0.60050   0.65770774E-03
   0.60150   0.64078259E-03
   0.60250   0.62494347E-03
   0.60350   0.61038736E-03
   0.60450   0.59722597E-03
   0.60550   0.58549229E-03
   0.60650   0.57514838E-03
   0.60750   0.56609855E-03
   0.60850   0.55820763E-03
   0.60950   0.55132422E-03
   0.61050   0.54530590E-03
   0.61150   0.54004259E-03
   0.61250   0.53547329E-03
   0.61350   0.53158886E-03
   0.61450   0.52839768E-03
   0.61550   0.52576890E-03
   0.61650   0.52273448E-03
   0.61750   0.51395386E-03
   0.61850   0.48395389E-03
   0.61950   0.44249572E-03
   0.62050   0.40718220E-03
   0.62150   0.37923633E-03
   0.62250   0.35788832E-03
   0.62350   0.34086383E-03
   0.62450   0.32657856E-03
   0.62550   0.31487134E-03
   0.62650   0.30551027E-03
   0.62750   0.29823705E-03
   0.62850   0.29282851E-03
   0.62950   0.28910761E-03
   0.63050   0.28694081E-03
   0.63150   0.28623233E-03
   0.63250   0.28691857E-03
   0.63350   0.28896212E-03
   0.63450   0.29234600E-03
   0.63550   0.29706702E-03
   0.63650   0.30312844E-03
   0.63750   0.31053135E-03
   0.63850   0.31926576E-03
   0.63950   0.32930161E-03
   0.64050   0.34058109E-03
   0.64150   0.35301311E-03
   0.64250   0.36647127E-03
   0.64350   0.38079580E-03
   0.64450   0.39579993E-03
   0.64550   0.41128014E-03
   0.64650   0.42703003E-03
   0.64750   0.44285567E-03
   0.64850   0.45859162E-03
   0.64950   0.47411572E-03
   0.65050   0.48936112E-03
   0.65150   0.50432462E-03
   0.65250   0.51907066E-03
   0.65350   0.53373026E-03
   0.65450   0.54849562E-03
   0.65550   0.56361122E-03
   0.65650   0.57936192E-03
   0.65750   0.59605966E-03
   0.65850   0.61403093E-03
   0.65950   0.63360570E-03
   0.66050   0.65511093E-03
   0.66150   0.67886856E-03
   0.66250   0.70520095E-03
   0.66350   0.73444279E-03
   0.66450   0.76696061E-03
   0.66550   0.80317853E-03
   0.66650   0.84360794E-03
   0.66750   0.88888005E-03
   0.66850   0.93977718E-03
   0.66950   0.99725986E-03
   0.67050   0.10624870E-02
   0.67150   0.11368261E-02
   0.67250   0.12218520E-02
   0.67350   0.13193330E-02
   0.67450   0.14312071E-02
   0.67550   0.15595510E-02
   0.67650   0.17065507E-02
   0.67750   0.18744839E-02
   0.67850   0.20657310E-02
   0.67950   0.22828411E-02
   0.68050   0.25286884E-02
   0.68150   0.28067923E-02
   0.68250   0.31219551E-02
   0.68350   0.34815825E-02
   0.68450   0.38970103E-02
   0.68550   0.41969549E-02
   0.68650   0.49955752E-02
   0.68750   0.50616064E-02
   0.68850   0.53443941E-02
   0.68950   0.56805806E-02
   0.69050   0.61372323E-02
   0.69150   0.67516137E-02
   0.69250   0.75701904E-02
   0.69350   0.86536342E-02
   0.69450   0.10068160E-01
   0.69550   0.11905154E-01
   0.69650   0.14482032E-01
   0.69750   0.18903254E-01
   0.69850   0.27208813E-01
   0.69950   0.41512955E-01
   0.70050   0.88363379E-01
   0.70150   0.50908345E+00
   0.70250   0.94733164E-01
   0.70350   0.19952150E+00
   0.70450   0.31403118E+00
   0.70550   0.30246237E-01
   0.70650   0.62503773E-02
   0.70750   0.41488269E-02
   0.70850   0.28034968E-02
   0.70950   0.20984174E-02
   0.71050   0.16713645E-02
   0.71150   0.15146560E-02
   0.71250   0.14151420E-02
   0.71350   0.13450659E-02
   0.71450   0.13119285E-02
   0.71550   0.12858283E-02
   0.71650   0.12817892E-02
   0.71750   0.13213187E-02
   0.71850   0.13777919E-02
   0.71950   0.13972180E-02
   0.72050   0.13484207E-02
   0.72150   0.12467952E-02
   0.72250   0.11400222E-02
   0.72350   0.10753055E-02
   0.72450   0.10741772E-02
   0.72550   0.11276858E-02
   0.72650   0.12075088E-02
   0.72750   0.12816783E-02
   0.72850   0.13265645E-02
   0.72950   0.13320823E-02
   0.73050   0.13009363E-02
   0.73150   0.12449839E-02
   0.73250   0.11830514E-02
   0.73350   0.11301266E-02
   0.73450   0.10860208E-02
   0.73550   0.10499323E-02
   0.73650   0.10197432E-02
   0.73750   0.99215540E-03
   0.73850   0.96443360E-03
   0.73950   0.93591399E-03
   0.74050   0.90868911E-03
   0.74150   0.88726549E-03
   0.74250   0.87735057E-03
   0.74350   0.88421180E-03
   0.74450   0.91116817E-03
   0.74550   0.95867447E-03
   0.74650   0.10242132E-02
   0.74750   0.11029199E-02
   0.74850   0.11886541E-02
   0.74950   0.12751489E-02
   0.75050   0.13569330E-02
   0.75150   0.14298627E-02
   0.75250   0.14912628E-02
   0.75350   0.15397936E-02
   0.75450   0.15752070E-02
   0.75550   0.15981282E-02
   0.75650   0.16099265E-02
   0.75750   0.16126671E-02
   0.75850   0.16090807E-02
   0.75950   0.16024829E-02
   0.76050   0.15965942E-02
   0.76150   0.15952479E-02
   0.76250   0.16020086E-02
   0.76350   0.16197475E-02
   0.76450   0.16502371E-02
   0.76550   0.16938318E-02
   0.76650   0.17492996E-02
   0.76750   0.18138553E-02
   0.76850   0.18834169E-02
   0.76950   0.19530780E-02
   0.77050   0.20177467E-02
   0.77150   0.20728735E-02
   0.77250   0.21151744E-02
   0.77350   0.21432422E-02
   0.77450   0.21579668E-02
   0.77550   0.21626994E-02
   0.77650   0.21631492E-02
   0.77750   0.21670563E-02
   0.77850   0.21837729E-02
   0.77950   0.22240509E-02
   0.78050   0.23007283E-02
   0.78150   0.24308397E-02
   0.78250   0.26169990E-02
   0.78350   0.28154615E-02
   0.78450   0.30217194E-02
   0.78550   0.32462026E-02
   0.78650   0.34940776E-02
   0.78750   0.37671176E-02
   0.78850   0.40649264E-02
   0.78950   0.43855286E-02
   0.79050   0.47257869E-02
   0.79150   0.50817924E-02
   0.79250   0.54492420E-02
   0.79350   0.58237878E-02
   0.79450   0.62013348E-02
   0.79550   0.65782610E-02
   0.79650   0.69515537E-02
   0.79750   0.73188781E-02
   0.79850   0.76785837E-02
   0.79950   0.80296947E-02
   0.80050   0.83718952E-02
   0.80150   0.87055387E-02
   0.80250   0.90316944E-02
   0.80350   0.93522193E-02
   0.80450   0.96698496E-02
   0.80550   0.99882875E-02
   0.80650   0.10312269E-01
   0.80750   0.10647593E-01
   0.80850   0.11001131E-01
   0.80950   0.11380807E-01
   0.81050   0.11795614E-01
   0.81150   0.12255676E-01
   0.81250   0.12772460E-01
   0.81350   0.13359190E-01
   0.81450   0.14031594E-01
   0.81550   0.14809204E-01
   0.81650   0.15717592E-01
   0.81750   0.16792389E-01
   0.81850   0.18087124E-01
   0.81950   0.19690577E-01
   0.82050   0.21772141E-01
   0.82150   0.24730783E-01
   0.82250   0.29865973E-01
   0.82350   0.44031277E-01
   0.82450   0.71970291E-01
   0.82550   0.75513408E-01
   0.82650   0.75746119E-01
   0.82750   0.10033245E+00
   0.82850   0.15059122E+00
   0.82950   0.23861603E+00
   0.83050   0.34604919E+00
   0.83150   0.41251877E+00
   0.83250   0.28669602E+00
   0.83350   0.29225060E+00
   0.83450   0.31631005E+00
   0.83550   0.35883880E+00
   0.83650   0.58362734E+00
   0.83750   0.53131002E+00
   0.83850   0.59462792E+00
   0.83950   0.51446742E+00
   0.84050   0.25187489E+00
   0.84150   0.13950120E+00
   0.84250   0.86876936E-01
   0.84350   0.73117390E-01
   0.84450   0.69437988E-01
   0.84550   0.64840212E-01
   0.84650   0.58464263E-01
   0.84750   0.52492615E-01
   0.84850   0.48049871E-01
   0.84950   0.45477740E-01
   0.85050   0.44822641E-01
   0.85150   0.45348823E-01
   0.85250   0.46317298E-01
   0.85350   0.47742981E-01
   0.85450   0.49838178E-01
   0.85550   0.52403387E-01
   0.85650   0.54986943E-01
   0.85750   0.57292596E-01
   0.85850   0.59243068E-01
   0.85950   0.60803283E-01
   0.86050   0.61894439E-01
   0.86150   0.62452011E-01
   0.86250   0.62492505E-01
   0.86350   0.62117748E-01
   0.86450   0.61487790E-01
   0.86550   0.60803115E-01
   0.86650   0.60297929E-01
   0.86750   0.60223408E-01
   0.86850   0.60806014E-01
   0.86950   0.62188804E-01
   0.87050   0.64382203E-01
   0.87150   0.67248449E-01
   0.87250   0.70524812E-01
   0.87350   0.73876955E-01
   0.87450   0.76971009E-01
   0.87550   0.79548612E-01
   0.87650   0.81479676E-01
   0.87750   0.82771502E-01
   0.87850   0.83536819E-01
   0.87950   0.83945908E-01
   0.88050   0.84187642E-01
   0.88150   0.84448710E-01
   0.88250   0.84907107E-01
   0.88350   0.85731767E-01
   0.88450   0.87081321E-01
   0.88550   0.89099400E-01
   0.88650   0.91910839E-01
   0.88750   0.95627807E-01
   0.88850   0.10037076E+00
   0.88950   0.10629524E+00
   0.89050   0.11360399E+00
   0.89150   0.12252615E+00
   0.89250   0.13326114E+00
   0.89350   0.14590362E+00
   0.89450   0.16037458E+00
   0.89550   0.17638358E+00
   0.89650   0.19344224E+00
   0.89750   0.21094647E+00
   0.89850   0.22834446E+00
   0.89950   0.24545112E+00
   0.90050   0.26316914E+00
   0.90150   0.28318825E+00
   0.90250   0.30497593E+00
   0.90350   0.32707834E+00
   0.90450   0.34861079E+00
   0.90550   0.36961716E+00
   0.90650   0.38988820E+00
   0.90750   0.40885943E+00
   0.90850   0.42574647E+00
   0.90950   0.43975481E+00
   0.91050   0.45027673E+00
   0.91150   0.45701030E+00
   0.91250   0.45999217E+00
   0.91350   0.45957220E+00
   0.91450   0.45636106E+00
   0.91550   0.45117402E+00
   0.91650   0.44498456E+00
   0.91750   0.43889770E+00
   0.91850   0.43415585E+00
   0.91950   0.43220416E+00
   0.92050   0.43491012E+00
   0.92150   0.44531479E+00
   0.92250   0.47111538E+00
   0.92350   0.55581152E+00
   0.92450   0.78183055E+00
   0.92550   0.58081937E+00
   0.92650   0.61959201E+00
   0.92750   0.72247779E+00
   0.92850   0.89689785E+00
   0.92950   0.83614480E+00
   0.93050   0.85684800E+00
   0.93150   0.92048424E+00
   0.93250   0.10253576E+01
   0.93350   0.11137512E+01
   0.93450   0.11761776E+01
   0.93550   0.12525015E+01
   0.93650   0.13614929E+01
   0.93750   0.14948670E+01
   0.93850   0.16145673E+01
   0.93950   0.16626023E+01
   0.94050   0.16452752E+01
   0.94150   0.16352895E+01
   0.94250   0.16690323E+01
   0.94350   0.16762357E+01
   0.94450   0.16719753E+01
   0.94550   0.16731776E+01
   0.94650   0.16757394E+01
   0.94750   0.16831084E+01
   0.94850   0.16784772E+01
   0.94950   0.16573625E+01
   0.95050   0.16271852E+01
   0.95150   0.16069632E+01
   0.95250   0.16127300E+01
   0.95350   0.16358488E+01
   0.95450   0.16481397E+01
   0.95550   0.16471064E+01
   0.95650   0.16409489E+01
   0.95750   0.16327553E+01
   0.95850   0.16382051E+01
   0.95950   0.16733601E+01
   0.96050   0.17335730E+01
   0.96150   0.17911536E+01
   0.96250   0.18250366E+01
   0.96350   0.18356172E+01
   0.96450   0.18355927E+01
   0.96550   0.18378763E+01
   0.96650   0.18493819E+01
   0.96750   0.18720552E+01
   0.96850   0.19068488E+01
   0.96950   0.19549576E+01
   0.97050   0.20150228E+01
   0.97150   0.20821397E+01
   0.97250   0.21536429E+01
   0.97350   0.22331765E+01
   0.97450   0.23249328E+01
   0.97550   0.24321902E+01
   0.97650   0.25518937E+01
   0.97750   0.26734943E+01
   0.97850   0.27938347E+01
   0.97950   0.29115291E+01
   0.98050   0.30214615E+01
   0.98150   0.31109717E+01
   0.98250   0.31676111E+01
   0.98350   0.31886723E+01
   0.98450   0.31880269E+01
   0.98550   0.31864314E+01
   0.98650   0.31905055E+01
   0.98750   0.32013583E+01
   0.98850   0.32265534E+01
   0.98950   0.32790437E+01
   0.99050   0.33561141E+01
   0.99150   0.34248643E+01
   0.99250   0.34204085E+01
   0.99350   0.33483646E+01
   0.99450   0.32988253E+01
   0.99550   0.33711607E+01
   0.99650   0.35263972E+01
   0.99750   0.37400062E+01
   0.99850   0.38003917E+01
   0.99950   0.38375940E+01
