# Transmission, k-averaged
# Date: 2021-05-13
#   E [eV]           T [G0]
   0.00050   0.30676241E-02
   0.00150   0.24311584E-02
   0.00250   0.27845290E-02
   0.00350   0.29618801E-02
   0.00450   0.49985014E-02
   0.00550   0.55905613E-02
   0.00650   0.58535002E-02
   0.00750   0.32223459E-01
   0.00850   0.60498812E-02
   0.00950   0.19604528E-01
   0.01050   0.55434112E-02
   0.01150   0.54254759E-01
   0.01250   0.47879405E-02
   0.01350   0.10607151E-01
   0.01450   0.19177107E-01
   0.01550   0.40524434E-02
   0.01650   0.76810438E-02
   0.01750   0.52314904E-01
   0.01850   0.48617101E-02
   0.01950   0.37896216E-02
   0.02050   0.13704026E-01
   0.02150   0.28933847E-01
   0.02250   0.43591717E-02
   0.02350   0.32709083E-02
   0.02450   0.71942215E-02
   0.02550   0.98436557E-01
   0.02650   0.81971446E-02
   0.02750   0.32460769E-02
   0.02850   0.32365574E-02
   0.02950   0.76034865E-02
   0.03050   0.10293490E+00
   0.03150   0.11054342E-01
   0.03250   0.37127133E-02
   0.03350   0.29571392E-02
   0.03450   0.44231741E-02
   0.03550   0.16656855E-01
   0.03650   0.84530570E-01
   0.03750   0.83018513E-02
   0.03850   0.37339160E-02
   0.03950   0.32448317E-02
   0.04050   0.48060124E-02
   0.04150   0.15164295E-01
   0.04250   0.13247252E+00
   0.04350   0.15839202E-01
   0.04450   0.71709156E-02
   0.04550   0.71226880E-02
   0.04650   0.97571220E-02
   0.04750   0.16310304E-01
   0.04850   0.29818436E-01
   0.04950   0.34342576E-01
   0.05050   0.21408046E-01
   0.05150   0.13324871E-01
   0.05250   0.10061240E-01
   0.05350   0.91763977E-02
   0.05450   0.98424330E-02
   0.05550   0.11962827E-01
   0.05650   0.15203041E-01
   0.05750   0.17270437E-01
   0.05850   0.15563193E-01
   0.05950   0.12157002E-01
   0.06050   0.95878802E-02
   0.06150   0.82272366E-02
   0.06250   0.78194700E-02
   0.06350   0.81787324E-02
   0.06450   0.91978386E-02
   0.06550   0.10609679E-01
   0.06650   0.11660083E-01
   0.06750   0.11457619E-01
   0.06850   0.10143071E-01
   0.06950   0.86473972E-02
   0.07050   0.75547667E-02
   0.07150   0.69873319E-02
   0.07250   0.69091516E-02
   0.07350   0.72697909E-02
   0.07450   0.79972986E-02
   0.07550   0.89003993E-02
   0.07650   0.95775006E-02
   0.07750   0.95985131E-02
   0.07850   0.89467978E-02
   0.07950   0.80298726E-02
   0.08050   0.72400873E-02
   0.08150   0.67563937E-02
   0.08250   0.66215978E-02
   0.08350   0.68349629E-02
   0.08450   0.73789144E-02
   0.08550   0.81831720E-02
   0.08650   0.90440977E-02
   0.08750   0.96003385E-02
   0.08850   0.95478036E-02
   0.08950   0.89491792E-02
   0.09050   0.81561739E-02
   0.09150   0.74588065E-02
   0.09250   0.69161151E-02
   0.09350   0.66162329E-02
   0.09450   0.65798406E-02
   0.09550   0.66888891E-02
   0.09650   0.67944019E-02
   0.09750   0.67497040E-02
   0.09850   0.64758523E-02
   0.09950   0.60098600E-02
   0.10050   0.54668421E-02
   0.10150   0.49582557E-02
   0.10250   0.45480244E-02
   0.10350   0.42559500E-02
   0.10450   0.40758913E-02
   0.10550   0.39886022E-02
   0.10650   0.39664861E-02
   0.10750   0.39743222E-02
   0.10850   0.39716149E-02
   0.10950   0.39211717E-02
   0.11050   0.38026297E-02
   0.11150   0.36214134E-02
   0.11250   0.34042003E-02
   0.11350   0.31843209E-02
   0.11450   0.29887063E-02
   0.11550   0.28328109E-02
   0.11650   0.27216403E-02
   0.11750   0.26526127E-02
   0.11850   0.26177715E-02
   0.11950   0.26050310E-02
   0.12050   0.25993602E-02
   0.12150   0.25851249E-02
   0.12250   0.25500022E-02
   0.12350   0.24890830E-02
   0.12450   0.24065231E-02
   0.12550   0.23133471E-02
   0.12650   0.22229026E-02
   0.12750   0.21467889E-02
   0.12850   0.20928339E-02
   0.12950   0.20648453E-02
   0.13050   0.20631168E-02
   0.13150   0.20849358E-02
   0.13250   0.21249207E-02
   0.13350   0.21754811E-02
   0.13450   0.22279008E-02
   0.13550   0.22742779E-02
   0.13650   0.23098579E-02
   0.13750   0.23346345E-02
   0.13850   0.23532754E-02
   0.13950   0.23734726E-02
   0.14050   0.24037138E-02
   0.14150   0.24514569E-02
   0.14250   0.25220390E-02
   0.14350   0.26181154E-02
   0.14450   0.27393063E-02
   0.14550   0.28819430E-02
   0.14650   0.30391177E-02
   0.14750   0.32014449E-02
   0.14850   0.33588205E-02
   0.14950   0.35029226E-02
   0.15050   0.36295268E-02
   0.15150   0.37395444E-02
   0.15250   0.38383121E-02
   0.15350   0.39336062E-02
   0.15450   0.40333248E-02
   0.15550   0.41435640E-02
   0.15650   0.42673522E-02
   0.15750   0.44039586E-02
   0.15850   0.45486754E-02
   0.15950   0.46930979E-02
   0.16050   0.48260349E-02
   0.16150   0.49351323E-02
   0.16250   0.50090416E-02
   0.16350   0.50395927E-02
   0.16450   0.50232667E-02
   0.16550   0.49614492E-02
   0.16650   0.48594456E-02
   0.16750   0.47247182E-02
   0.16850   0.45649703E-02
   0.16950   0.43865326E-02
   0.17050   0.41931770E-02
   0.17150   0.39852145E-02
   0.17250   0.37584107E-02
   0.17350   0.35013789E-02
   0.17450   0.31861011E-02
   0.17550   0.27463119E-02
   0.17650   0.22226428E-02
   0.17750   0.18005613E-02
   0.17850   0.14856596E-02
   0.17950   0.12503400E-02
   0.18050   0.10769786E-02
   0.18150   0.95383957E-03
   0.18250   0.87203941E-03
   0.18350   0.82423980E-03
   0.18450   0.80407696E-03
   0.18550   0.80587616E-03
   0.18650   0.82449958E-03
   0.18750   0.85529260E-03
   0.18850   0.89412136E-03
   0.18950   0.93747000E-03
   0.19050   0.98254404E-03
   0.19150   0.10273183E-02
   0.19250   0.10704941E-02
   0.19350   0.11113633E-02
   0.19450   0.11496125E-02
   0.19550   0.11851062E-02
   0.19650   0.12176870E-02
   0.19750   0.12470111E-02
   0.19850   0.12724249E-02
   0.19950   0.12928731E-02
   0.20050   0.13068151E-02
   0.20150   0.13121131E-02
   0.20250   0.13058141E-02
   0.20350   0.12837007E-02
   0.20450   0.12393679E-02
   0.20550   0.11624137E-02
   0.20650   0.10352149E-02
   0.20750   0.82918431E-03
   0.20850   0.51416067E-03
   0.20950   0.15036071E-03
   0.21050   0.39732213E-05
   0.21150   0.39921390E-04
   0.21250   0.33146155E-03
   0.21350   0.68151538E-03
   0.21450   0.91011578E-03
   0.21550   0.10312716E-02
   0.21650   0.10787015E-02
   0.21750   0.10653756E-02
   0.21850   0.10051229E-02
   0.21950   0.93499047E-03
   0.22050   0.87902060E-03
   0.22150   0.87938661E-03
   0.22250   0.10064240E-02
   0.22350   0.13142918E-02
   0.22450   0.17602012E-02
   0.22550   0.22175652E-02
   0.22650   0.25944426E-02
   0.22750   0.28792121E-02
   0.22850   0.30995063E-02
   0.22950   0.32861235E-02
   0.23050   0.34627221E-02
   0.23150   0.36468063E-02
   0.23250   0.38522314E-02
   0.23350   0.40852251E-02
   0.23450   0.42891596E-02
   0.23550   0.42773760E-02
   0.23650   0.41344175E-02
   0.23750   0.39809053E-02
   0.23850   0.38391948E-02
   0.23950   0.37112061E-02
   0.24050   0.35955869E-02
   0.24150   0.34906236E-02
   0.24250   0.33947735E-02
   0.24350   0.33067330E-02
   0.24450   0.32254127E-02
   0.24550   0.31498999E-02
   0.24650   0.30794281E-02
   0.24750   0.30133526E-02
   0.24850   0.29511324E-02
   0.24950   0.28923152E-02
   0.25050   0.28365236E-02
   0.25150   0.27834431E-02
   0.25250   0.27328106E-02
   0.25350   0.26844016E-02
   0.25450   0.26380206E-02
   0.25550   0.25934912E-02
   0.25650   0.25506478E-02
   0.25750   0.25093304E-02
   0.25850   0.24693790E-02
   0.25950   0.24306329E-02
   0.26050   0.23929302E-02
   0.26150   0.23561085E-02
   0.26250   0.23200077E-02
   0.26350   0.22844716E-02
   0.26450   0.22493522E-02
   0.26550   0.22145095E-02
   0.26650   0.21798143E-02
   0.26750   0.21451472E-02
   0.26850   0.21103981E-02
   0.26950   0.20754635E-02
   0.27050   0.20402446E-02
   0.27150   0.20046437E-02
   0.27250   0.19685626E-02
   0.27350   0.19319000E-02
   0.27450   0.18945516E-02
   0.27550   0.18564099E-02
   0.27650   0.18173672E-02
   0.27750   0.17773177E-02
   0.27850   0.17361629E-02
   0.27950   0.16938157E-02
   0.28050   0.16502052E-02
   0.28150   0.16052814E-02
   0.28250   0.15590184E-02
   0.28350   0.15114174E-02
   0.28450   0.14625075E-02
   0.28550   0.14123460E-02
   0.28650   0.13610176E-02
   0.28750   0.13086330E-02
   0.28850   0.12553264E-02
   0.28950   0.12012528E-02
   0.29050   0.11465818E-02
   0.29150   0.10914891E-02
   0.29250   0.10361373E-02
   0.29350   0.98063948E-03
   0.29450   0.92497800E-03
   0.29550   0.86881331E-03
   0.29650   0.81094634E-03
   0.29750   0.74750930E-03
   0.29850   0.66576817E-03
   0.29950   0.55403513E-03
   0.30050   0.45412863E-03
   0.30150   0.37968697E-03
   0.30250   0.32301538E-03
   0.30350   0.27853501E-03
   0.30450   0.24288724E-03
   0.30550   0.21392998E-03
   0.30650   0.19020455E-03
   0.30750   0.17066357E-03
   0.30850   0.15452366E-03
   0.30950   0.14118043E-03
   0.31050   0.13015658E-03
   0.31150   0.12106837E-03
   0.31250   0.11360308E-03
   0.31350   0.10750305E-03
   0.31450   0.10255408E-03
   0.31550   0.98576609E-04
   0.31650   0.95418975E-04
   0.31750   0.92951988E-04
   0.31850   0.91064729E-04
   0.31950   0.89661029E-04
   0.32050   0.88656692E-04
   0.32150   0.87977176E-04
   0.32250   0.87555673E-04
   0.32350   0.87331478E-04
   0.32450   0.87248656E-04
   0.32550   0.87254783E-04
   0.32650   0.87299915E-04
   0.32750   0.87335546E-04
   0.32850   0.87313725E-04
   0.32950   0.87186134E-04
   0.33050   0.86903274E-04
   0.33150   0.86413667E-04
   0.33250   0.85663276E-04
   0.33350   0.84595173E-04
   0.33450   0.83149767E-04
   0.33550   0.81266080E-04
   0.33650   0.78884892E-04
   0.33750   0.75955002E-04
   0.33850   0.72444731E-04
   0.33950   0.68361718E-04
   0.34050   0.63784610E-04
   0.34150   0.58910297E-04
   0.34250   0.54116943E-04
   0.34350   0.50035324E-04
   0.34450   0.47610949E-04
   0.34550   0.48132406E-04
   0.34650   0.53176747E-04
   0.34750   0.64308675E-04
   0.34850   0.82298495E-04
   0.34950   0.10616879E-03
   0.35050   0.13317668E-03
   0.35150   0.16009099E-03
   0.35250   0.18456405E-03
   0.35350   0.20557144E-03
   0.35450   0.22309060E-03
   0.35550   0.23760468E-03
   0.35650   0.24974535E-03
   0.35750   0.26011048E-03
   0.35850   0.26919600E-03
   0.35950   0.27738145E-03
   0.36050   0.28492714E-03
   0.36150   0.29193982E-03
   0.36250   0.29824025E-03
   0.36350   0.30372577E-03
   0.36450   0.30902433E-03
   0.36550   0.31443668E-03
   0.36650   0.32012328E-03
   0.36750   0.32625147E-03
   0.36850   0.33299977E-03
   0.36950   0.34056016E-03
   0.37050   0.34914509E-03
   0.37150   0.35899883E-03
   0.37250   0.37041344E-03
   0.37350   0.38375193E-03
   0.37450   0.39948142E-03
   0.37550   0.41822309E-03
   0.37650   0.44082917E-03
   0.37750   0.46850488E-03
   0.37850   0.50300226E-03
   0.37950   0.54689561E-03
   0.38050   0.60357508E-03
   0.38150   0.67209086E-03
   0.38250   0.71730977E-03
   0.38350   0.71819080E-03
   0.38450   0.70394506E-03
   0.38550   0.68358623E-03
   0.38650   0.65850152E-03
   0.38750   0.63015678E-03
   0.38850   0.60078112E-03
   0.38950   0.57242176E-03
   0.39050   0.54631475E-03
   0.39150   0.52290346E-03
   0.39250   0.50213374E-03
   0.39350   0.48372557E-03
   0.39450   0.46733615E-03
   0.39550   0.45263683E-03
   0.39650   0.43934077E-03
   0.39750   0.42720739E-03
   0.39850   0.41603748E-03
   0.39950   0.40566589E-03
   0.40050   0.39595409E-03
   0.40150   0.38678347E-03
   0.40250   0.37804956E-03
   0.40350   0.36965671E-03
   0.40450   0.36151314E-03
   0.40550   0.35352487E-03
   0.40650   0.34558820E-03
   0.40750   0.33757812E-03
   0.40850   0.32932815E-03
   0.40950   0.32059127E-03
   0.41050   0.31095449E-03
   0.41150   0.29962277E-03
   0.41250   0.28477554E-03
   0.41350   0.26145394E-03
   0.41450   0.22161596E-03
   0.41550   0.18099930E-03
   0.41650   0.15222264E-03
   0.41750   0.13148246E-03
   0.41850   0.11567354E-03
   0.41950   0.10310720E-03
   0.42050   0.92810689E-04
   0.42150   0.84179657E-04
   0.42250   0.76814824E-04
   0.42350   0.70439375E-04
   0.42450   0.64853913E-04
   0.42550   0.59910344E-04
   0.42650   0.55495813E-04
   0.42750   0.51522475E-04
   0.42850   0.47920665E-04
   0.42950   0.44634238E-04
   0.43050   0.41617266E-04
   0.43150   0.38831669E-04
   0.43250   0.36245463E-04
   0.43350   0.33831442E-04
   0.43450   0.31566178E-04
   0.43550   0.29429222E-04
   0.43650   0.27402521E-04
   0.43750   0.25469908E-04
   0.43850   0.23616740E-04
   0.43950   0.21829612E-04
   0.44050   0.20096164E-04
   0.44150   0.18405008E-04
   0.44250   0.16745767E-04
   0.44350   0.15109332E-04
   0.44450   0.13488337E-04
   0.44550   0.11878031E-04
   0.44650   0.10277598E-04
   0.44750   0.86920654E-05
   0.44850   0.71347686E-05
   0.44950   0.56300628E-05
   0.45050   0.42153747E-05
   0.45150   0.29407186E-05
   0.45250   0.18629136E-05
   0.45350   0.10320859E-05
   0.45450   0.47167495E-06
   0.45550   0.16068971E-06
   0.45650   0.33041349E-07
   0.45750   0.24649720E-08
   0.45850   0.62509486E-09
   0.45950   0.86656055E-09
   0.46050   0.12353752E-07
   0.46150   0.56171334E-07
   0.46250   0.14508038E-06
   0.46350   0.27713605E-06
   0.46450   0.43965505E-06
   0.46550   0.61608165E-06
   0.46650   0.79117450E-06
   0.46750   0.95346672E-06
   0.46850   0.10956967E-05
   0.46950   0.12141998E-05
   0.47050   0.13079695E-05
   0.47150   0.13777612E-05
   0.47250   0.14253760E-05
   0.47350   0.14531464E-05
   0.47450   0.14635923E-05
   0.47550   0.14592071E-05
   0.47650   0.14423337E-05
   0.47750   0.14151021E-05
   0.47850   0.13794042E-05
   0.47950   0.13368922E-05
   0.48050   0.12889905E-05
   0.48150   0.12369143E-05
   0.48250   0.11816909E-05
   0.48350   0.11241815E-05
   0.48450   0.10651014E-05
   0.48550   0.10050394E-05
   0.48650   0.94447381E-06
   0.48750   0.88378675E-06
   0.48850   0.82327523E-06
   0.48950   0.76315922E-06
   0.49050   0.70358544E-06
   0.49150   0.64462552E-06
   0.49250   0.58626352E-06
   0.49350   0.52836560E-06
   0.49450   0.47060851E-06
   0.49550   0.41230993E-06
   0.49650   0.35199696E-06
   0.49750   0.28647386E-06
   0.49850   0.21492276E-06
   0.49950   0.15746183E-06
   0.50050   0.11883491E-06
   0.50150   0.91157382E-07
   0.50250   0.70262324E-07
   0.50350   0.54072974E-07
   0.50450   0.41395861E-07
   0.50550   0.31459205E-07
   0.50650   0.23716682E-07
   0.50750   0.17753058E-07
   0.50850   0.13234539E-07
   0.50950   0.98818234E-08
   0.51050   0.74569027E-08
   0.51150   0.57604828E-08
   0.51250   0.46399862E-08
   0.51350   0.40101598E-08
   0.51450   0.38900412E-08
   0.51550   0.44618766E-08
   0.51650   0.61616512E-08
   0.51750   0.98287698E-08
   0.51850   0.17041561E-07
   0.51950   0.31415706E-07
   0.52050   0.66499517E-07
   0.52150   0.17017204E-06
   0.52250   0.38457256E-06
   0.52350   0.72612227E-06
   0.52450   0.12092599E-05
   0.52550   0.18339672E-05
   0.52650   0.25776908E-05
   0.52750   0.33948750E-05
   0.52850   0.42243478E-05
   0.52950   0.50020722E-05
   0.53050   0.56729382E-05
   0.53150   0.61888804E-05
   0.53250   0.64414562E-05
   0.53350   0.60542820E-05
   0.53450   0.51420875E-05
   0.53550   0.42591223E-05
   0.53650   0.35095793E-05
   0.53750   0.28856132E-05
   0.53850   0.23691562E-05
   0.53950   0.19431277E-05
   0.54050   0.15925567E-05
   0.54150   0.13045645E-05
   0.54250   0.10682069E-05
   0.54350   0.87428526E-06
   0.54450   0.71514177E-06
   0.54550   0.58444869E-06
   0.54650   0.47700763E-06
   0.54750   0.38856456E-06
   0.54850   0.31564724E-06
   0.54950   0.25542639E-06
   0.55050   0.20560466E-06
   0.55150   0.16434224E-06
   0.55250   0.13025472E-06
   0.55350   0.10261462E-06
   0.55450   0.82308965E-07
   0.55550   0.76454356E-07
   0.55650   0.12863431E-06
   0.55750   0.70451330E-06
   0.55850   0.25813106E-04
   0.55950   0.75695698E-05
   0.56050   0.18018800E-05
   0.56150   0.64799127E-06
   0.56250   0.36525151E-06
   0.56350   0.24689814E-06
   0.56450   0.18041075E-06
   0.56550   0.15399593E-06
   0.56650   0.21216989E-06
   0.56750   0.50302435E-06
   0.56850   0.14399342E-05
   0.56950   0.41785838E-05
   0.57050   0.12135324E-04
   0.57150   0.36994326E-04
   0.57250   0.16033747E-03
   0.57350   0.91735252E-04
   0.57450   0.83184452E-04
   0.57550   0.11841816E-03
   0.57650   0.16467586E-03
   0.57750   0.19199595E-03
   0.57850   0.19618434E-03
   0.57950   0.21490421E-03
   0.58050   0.88408403E-03
   0.58150   0.43520562E-01
   0.58250   0.98778987E-02
   0.58350   0.11821284E-02
   0.58450   0.64878119E-03
   0.58550   0.91684354E-03
   0.58650   0.46641063E-02
   0.58750   0.30616494E-01
   0.58850   0.16496763E-01
   0.58950   0.10093717E+00
   0.59050   0.43550096E-02
   0.59150   0.33027679E-02
   0.59250   0.19348515E-01
   0.59350   0.38345985E-02
   0.59450   0.11139096E-01
   0.59550   0.58353208E-02
   0.59650   0.43013529E-02
   0.59750   0.47637951E-02
   0.59850   0.48463093E-02
   0.59950   0.43576444E-02
   0.60050   0.37481838E-02
   0.60150   0.32306120E-02
   0.60250   0.28040099E-02
   0.60350   0.23459985E-02
   0.60450   0.19466613E-02
   0.60550   0.17279680E-02
   0.60650   0.16949878E-02
   0.60750   0.17459043E-02
   0.60850   0.19282908E-02
   0.60950   0.21782862E-02
   0.61050   0.23208077E-02
   0.61150   0.23678388E-02
   0.61250   0.24192238E-02
   0.61350   0.24542483E-02
   0.61450   0.24229067E-02
   0.61550   0.23610953E-02
   0.61650   0.23095272E-02
   0.61750   0.22103507E-02
   0.61850   0.19294085E-02
   0.61950   0.15348279E-02
   0.62050   0.11663410E-02
   0.62150   0.90279488E-03
   0.62250   0.84012153E-03
   0.62350   0.92222326E-03
   0.62450   0.10127411E-02
   0.62550   0.10688128E-02
   0.62650   0.11068750E-02
   0.62750   0.11417798E-02
   0.62850   0.11745628E-02
   0.62950   0.12003710E-02
   0.63050   0.12155625E-02
   0.63150   0.12150042E-02
   0.63250   0.11929091E-02
   0.63350   0.12628073E-02
   0.63450   0.13986477E-02
   0.63550   0.14733581E-02
   0.63650   0.15170927E-02
   0.63750   0.15448334E-02
   0.63850   0.15639988E-02
   0.63950   0.15788495E-02
   0.64050   0.15899035E-02
   0.64150   0.15947024E-02
   0.64250   0.15903529E-02
   0.64350   0.15761034E-02
   0.64450   0.15540845E-02
   0.64550   0.15278659E-02
   0.64650   0.15002086E-02
   0.64750   0.14716282E-02
   0.64850   0.14404152E-02
   0.64950   0.14038226E-02
   0.65050   0.13596563E-02
   0.65150   0.13073914E-02
   0.65250   0.12482477E-02
   0.65350   0.11843622E-02
   0.65450   0.11177404E-02
   0.65550   0.10496330E-02
   0.65650   0.98053925E-03
   0.65750   0.91062946E-03
   0.65850   0.84021996E-03
   0.65950   0.77001151E-03
   0.66050   0.70100802E-03
   0.66150   0.63424214E-03
   0.66250   0.57051552E-03
   0.66350   0.51029242E-03
   0.66450   0.45375712E-03
   0.66550   0.40095291E-03
   0.66650   0.35190774E-03
   0.66750   0.30668758E-03
   0.66850   0.26537650E-03
   0.66950   0.22802231E-03
   0.67050   0.19459290E-03
   0.67150   0.16496722E-03
   0.67250   0.13895791E-03
   0.67350   0.11634729E-03
   0.67450   0.96918637E-04
   0.67550   0.80474085E-04
   0.67650   0.66839224E-04
   0.67750   0.55860026E-04
   0.67850   0.47398185E-04
   0.67950   0.41328676E-04
   0.68050   0.37540522E-04
   0.68150   0.35940437E-04
   0.68250   0.36459802E-04
   0.68350   0.39067665E-04
   0.68450   0.43794254E-04
   0.68550   0.50750696E-04
   0.68650   0.59844675E-04
   0.68750   0.68206013E-04
   0.68850   0.72260598E-04
   0.68950   0.74501557E-04
   0.69050   0.76095705E-04
   0.69150   0.77183620E-04
   0.69250   0.77731725E-04
   0.69350   0.77696182E-04
   0.69450   0.77053090E-04
   0.69550   0.75801916E-04
   0.69650   0.73962809E-04
   0.69750   0.71572627E-04
   0.69850   0.68680696E-04
   0.69950   0.65344211E-04
   0.70050   0.61622661E-04
   0.70150   0.57568970E-04
   0.70250   0.53210890E-04
   0.70350   0.48497768E-04
   0.70450   0.43109598E-04
   0.70550   0.36246747E-04
   0.70650   0.29267385E-04
   0.70750   0.24069215E-04
   0.70850   0.20464622E-04
   0.70950   0.18087068E-04
   0.71050   0.16679382E-04
   0.71150   0.16057716E-04
   0.71250   0.16083201E-04
   0.71350   0.16647364E-04
   0.71450   0.17664623E-04
   0.71550   0.19068131E-04
   0.71650   0.20807149E-04
   0.71750   0.22845112E-04
   0.71850   0.25157891E-04
   0.71950   0.27732114E-04
   0.72050   0.30563438E-04
   0.72150   0.33654800E-04
   0.72250   0.37014746E-04
   0.72350   0.40655948E-04
   0.72450   0.44594035E-04
   0.72550   0.48847061E-04
   0.72650   0.53435895E-04
   0.72750   0.58386177E-04
   0.72850   0.63733009E-04
   0.72950   0.69530572E-04
   0.73050   0.75868833E-04
   0.73150   0.82859689E-04
   0.73250   0.90057816E-04
   0.73350   0.95769385E-04
   0.73450   0.10026970E-03
   0.73550   0.10425000E-03
   0.73650   0.10795009E-03
   0.73750   0.11146362E-03
   0.73850   0.11483870E-03
   0.73950   0.11810720E-03
   0.74050   0.12129475E-03
   0.74150   0.12442473E-03
   0.74250   0.12751977E-03
   0.74350   0.13060228E-03
   0.74450   0.13369440E-03
   0.74550   0.13681782E-03
   0.74650   0.13999337E-03
   0.74750   0.14324064E-03
   0.74850   0.14657763E-03
   0.74950   0.15002041E-03
   0.75050   0.15358278E-03
   0.75150   0.15727612E-03
   0.75250   0.16110922E-03
   0.75350   0.16508806E-03
   0.75450   0.16921588E-03
   0.75550   0.17349313E-03
   0.75650   0.17791749E-03
   0.75750   0.18248403E-03
   0.75850   0.18718529E-03
   0.75950   0.19201156E-03
   0.76050   0.19695114E-03
   0.76150   0.20199065E-03
   0.76250   0.20711550E-03
   0.76350   0.21231045E-03
   0.76450   0.21756018E-03
   0.76550   0.22285015E-03
   0.76650   0.22816751E-03
   0.76750   0.23350221E-03
   0.76850   0.23884844E-03
   0.76950   0.24420623E-03
   0.77050   0.24958342E-03
   0.77150   0.25499833E-03
   0.77250   0.26048263E-03
   0.77350   0.26608506E-03
   0.77450   0.27187608E-03
   0.77550   0.27795308E-03
   0.77650   0.28444614E-03
   0.77750   0.29152358E-03
   0.77850   0.29939617E-03
   0.77950   0.30831917E-03
   0.78050   0.31859113E-03
   0.78150   0.33045255E-03
   0.78250   0.34297121E-03
   0.78350   0.35451233E-03
   0.78450   0.36678760E-03
   0.78550   0.38969293E-03
   0.78650   0.57034456E-03
   0.78750   0.24468168E-02
   0.78850   0.79472462E-03
   0.78950   0.64394571E-03
   0.79050   0.62097277E-03
   0.79150   0.63820666E-03
   0.79250   0.69248339E-03
   0.79350   0.81557909E-03
   0.79450   0.10660774E-02
   0.79550   0.12848543E-02
   0.79650   0.14933724E-02
   0.79750   0.19820838E-02
   0.79850   0.31442272E-02
   0.79950   0.65209619E-02
   0.80050   0.11970541E-01
   0.80150   0.92510562E-02
   0.80250   0.65974845E-02
   0.80350   0.79708006E-02
   0.80450   0.29674059E-01
   0.80550   0.47151830E-01
   0.80650   0.26310945E+00
   0.80750   0.79614557E-01
   0.80850   0.72253086E-01
   0.80950   0.22402297E+00
   0.81050   0.12945449E+00
   0.81150   0.63011631E-01
   0.81250   0.52822858E-01
   0.81350   0.39876107E-01
   0.81450   0.29465266E-01
   0.81550   0.23883184E-01
   0.81650   0.21522967E-01
   0.81750   0.21494143E-01
   0.81850   0.24394618E-01
   0.81950   0.28921619E-01
   0.82050   0.31213423E-01
   0.82150   0.31436719E-01
   0.82250   0.29441200E-01
   0.82350   0.25390670E-01
   0.82450   0.21864939E-01
   0.82550   0.19963939E-01
   0.82650   0.19307865E-01
   0.82750   0.18876722E-01
   0.82850   0.18033803E-01
   0.82950   0.17139578E-01
   0.83050   0.16655810E-01
   0.83150   0.16642826E-01
   0.83250   0.16866669E-01
   0.83350   0.16941292E-01
   0.83450   0.16596740E-01
   0.83550   0.15953947E-01
   0.83650   0.15394332E-01
   0.83750   0.15225251E-01
   0.83850   0.15561175E-01
   0.83950   0.16373312E-01
   0.84050   0.17549669E-01
   0.84150   0.18960511E-01
   0.84250   0.20563984E-01
   0.84350   0.22288179E-01
   0.84450   0.23407029E-01
   0.84550   0.22945570E-01
   0.84650   0.20631531E-01
   0.84750   0.17598681E-01
   0.84850   0.15138699E-01
   0.84950   0.13736629E-01
   0.85050   0.13284276E-01
   0.85150   0.13568628E-01
   0.85250   0.14447565E-01
   0.85350   0.15763497E-01
   0.85450   0.17101577E-01
   0.85550   0.17796610E-01
   0.85650   0.17616320E-01
   0.85750   0.16905943E-01
   0.85850   0.15914870E-01
   0.85950   0.14707278E-01
   0.86050   0.13464768E-01
   0.86150   0.12459152E-01
   0.86250   0.11854658E-01
   0.86350   0.11696147E-01
   0.86450   0.11990736E-01
   0.86550   0.12745964E-01
   0.86650   0.13947606E-01
   0.86750   0.15496954E-01
   0.86850   0.17168345E-01
   0.86950   0.18685089E-01
   0.87050   0.19887589E-01
   0.87150   0.20799173E-01
   0.87250   0.21532038E-01
   0.87350   0.22174872E-01
   0.87450   0.22751160E-01
   0.87550   0.23233397E-01
   0.87650   0.23578474E-01
   0.87750   0.23759166E-01
   0.87850   0.23776237E-01
   0.87950   0.23650018E-01
   0.88050   0.23403706E-01
   0.88150   0.23052771E-01
   0.88250   0.22606928E-01
   0.88350   0.22080489E-01
   0.88450   0.21500634E-01
   0.88550   0.20905966E-01
   0.88650   0.20337353E-01
   0.88750   0.19829050E-01
   0.88850   0.19405358E-01
   0.88950   0.19082174E-01
   0.89050   0.18870102E-01
   0.89150   0.18776791E-01
   0.89250   0.18807814E-01
   0.89350   0.18966228E-01
   0.89450   0.19250674E-01
   0.89550   0.19651255E-01
   0.89650   0.20142842E-01
   0.89750   0.20676926E-01
   0.89850   0.21175237E-01
   0.89950   0.21525308E-01
   0.90050   0.21566685E-01
   0.90150   0.21277865E-01
   0.90250   0.21141531E-01
   0.90350   0.21337215E-01
   0.90450   0.21683048E-01
   0.90550   0.22134621E-01
   0.90650   0.22708796E-01
   0.90750   0.23428023E-01
   0.90850   0.24307864E-01
   0.90950   0.25356691E-01
   0.91050   0.26581137E-01
   0.91150   0.27994707E-01
   0.91250   0.29626479E-01
   0.91350   0.31526528E-01
   0.91450   0.33765640E-01
   0.91550   0.36428243E-01
   0.91650   0.39598092E-01
   0.91750   0.43336052E-01
   0.91850   0.47650713E-01
   0.91950   0.52467752E-01
   0.92050   0.57613090E-01
   0.92150   0.62830411E-01
   0.92250   0.67843318E-01
   0.92350   0.72445348E-01
   0.92450   0.76581709E-01
   0.92550   0.80407128E-01
   0.92650   0.84375404E-01
   0.92750   0.89574344E-01
   0.92850   0.99024966E-01
   0.92950   0.12114014E+00
   0.93050   0.13485798E+00
   0.93150   0.13728605E+00
   0.93250   0.29403415E+00
   0.93350   0.26571164E+00
   0.93450   0.38727701E+00
   0.93550   0.44097391E+00
   0.93650   0.39854646E+00
   0.93750   0.39476013E+00
   0.93850   0.46805030E+00
   0.93950   0.38487673E+00
   0.94050   0.37587020E+00
   0.94150   0.41624397E+00
   0.94250   0.44248664E+00
   0.94350   0.43739611E+00
   0.94450   0.46171206E+00
   0.94550   0.53426605E+00
   0.94650   0.64150983E+00
   0.94750   0.77018559E+00
   0.94850   0.83571309E+00
   0.94950   0.79954731E+00
   0.95050   0.73019445E+00
   0.95150   0.67499673E+00
   0.95250   0.63052928E+00
   0.95350   0.63400191E+00
   0.95450   0.60942870E+00
   0.95550   0.55568188E+00
   0.95650   0.50876004E+00
   0.95750   0.45568904E+00
   0.95850   0.39671895E+00
   0.95950   0.34537247E+00
   0.96050   0.31215134E+00
   0.96150   0.29792404E+00
   0.96250   0.29888475E+00
   0.96350   0.30830687E+00
   0.96450   0.31254584E+00
   0.96550   0.30173501E+00
   0.96650   0.27923346E+00
   0.96750   0.25500804E+00
   0.96850   0.23888990E+00
   0.96950   0.23282549E+00
   0.97050   0.22811505E+00
   0.97150   0.21389210E+00
   0.97250   0.19365759E+00
   0.97350   0.17729539E+00
   0.97450   0.16814715E+00
   0.97550   0.16581361E+00
   0.97650   0.16947727E+00
   0.97750   0.17907733E+00
   0.97850   0.19433436E+00
   0.97950   0.21188286E+00
   0.98050   0.22621070E+00
   0.98150   0.23479462E+00
   0.98250   0.23886527E+00
   0.98350   0.24050249E+00
   0.98450   0.24094754E+00
   0.98550   0.24038790E+00
   0.98650   0.23832953E+00
   0.98750   0.23421462E+00
   0.98850   0.22806215E+00
   0.98950   0.22139761E+00
   0.99050   0.21616900E+00
   0.99150   0.21235074E+00
   0.99250   0.20959534E+00
   0.99350   0.20769989E+00
   0.99450   0.20666803E+00
   0.99550   0.20635915E+00
   0.99650   0.20703685E+00
   0.99750   0.20935726E+00
   0.99850   0.21401379E+00
   0.99950   0.22153537E+00
