# Transmission, k-averaged
# Date: 2021-05-13
#   E [eV]           T [G0]
   0.00050   0.39142810E-01
   0.00150   0.36363900E-01
   0.00250   0.48093528E-01
   0.00350   0.73244892E-01
   0.00450   0.67711145E-01
   0.00550   0.39787307E-01
   0.00650   0.26523212E-01
   0.00750   0.46952352E-01
   0.00850   0.38032848E-01
   0.00950   0.36273479E-01
   0.01050   0.49760479E-01
   0.01150   0.10221664E-01
   0.01250   0.54876011E-01
   0.01350   0.67839231E-02
   0.01450   0.22591256E-01
   0.01550   0.92425272E-02
   0.01650   0.72958600E-02
   0.01750   0.58574017E-01
   0.01850   0.60967514E-02
   0.01950   0.99163791E-02
   0.02050   0.48805021E-01
   0.02150   0.62454622E-02
   0.02250   0.73288349E-02
   0.02350   0.72131179E-01
   0.02450   0.95058521E-02
   0.02550   0.48652682E-02
   0.02650   0.10725626E-01
   0.02750   0.67671858E-01
   0.02850   0.67096753E-02
   0.02950   0.39992332E-02
   0.03050   0.75944248E-02
   0.03150   0.78546986E-01
   0.03250   0.82082823E-02
   0.03350   0.33116830E-02
   0.03450   0.36840511E-02
   0.03550   0.12782524E-01
   0.03650   0.35896543E-01
   0.03750   0.45065759E-02
   0.03850   0.24690877E-02
   0.03950   0.30591222E-02
   0.04050   0.10616451E-01
   0.04150   0.31719290E-01
   0.04250   0.40294807E-02
   0.04350   0.20706651E-02
   0.04450   0.23009463E-02
   0.04550   0.52163680E-02
   0.04650   0.10225550E-01
   0.04750   0.37286640E-02
   0.04850   0.17707511E-02
   0.04950   0.13306788E-02
   0.05050   0.14187408E-02
   0.05150   0.19636727E-02
   0.05250   0.27021121E-02
   0.05350   0.22934696E-02
   0.05450   0.14623066E-02
   0.05550   0.10539450E-02
   0.05650   0.94285357E-03
   0.05750   0.10297864E-02
   0.05850   0.12807616E-02
   0.05950   0.15232048E-02
   0.06050   0.14094844E-02
   0.06150   0.10838537E-02
   0.06250   0.85400563E-03
   0.06350   0.76237472E-03
   0.06450   0.78214786E-03
   0.06550   0.89373911E-03
   0.06650   0.10454456E-02
   0.06750   0.10991243E-02
   0.06850   0.98051480E-03
   0.06950   0.81251154E-03
   0.07050   0.69997564E-03
   0.07150   0.66148356E-03
   0.07250   0.69045951E-03
   0.07350   0.77507622E-03
   0.07450   0.87798998E-03
   0.07550   0.92023559E-03
   0.07650   0.85760240E-03
   0.07750   0.74849732E-03
   0.07850   0.66324504E-03
   0.07950   0.62731578E-03
   0.08050   0.64303027E-03
   0.08150   0.70602080E-03
   0.08250   0.79842517E-03
   0.08350   0.87204843E-03
   0.08450   0.87053812E-03
   0.08550   0.79957629E-03
   0.08650   0.71764761E-03
   0.08750   0.66779478E-03
   0.08850   0.66560390E-03
   0.08950   0.71604422E-03
   0.09050   0.81700552E-03
   0.09150   0.93128422E-03
   0.09250   0.93774818E-03
   0.09350   0.82058035E-03
   0.09450   0.69404324E-03
   0.09550   0.60372317E-03
   0.09650   0.55345951E-03
   0.09750   0.53583167E-03
   0.09850   0.54094300E-03
   0.09950   0.55593619E-03
   0.10050   0.56438777E-03
   0.10150   0.55247627E-03
   0.10250   0.51910098E-03
   0.10350   0.47587126E-03
   0.10450   0.43617215E-03
   0.10550   0.40764501E-03
   0.10650   0.39220101E-03
   0.10750   0.38824219E-03
   0.10850   0.39184085E-03
   0.10950   0.39710201E-03
   0.11050   0.39734552E-03
   0.11150   0.38806730E-03
   0.11250   0.36970034E-03
   0.11350   0.34694880E-03
   0.11450   0.32535667E-03
   0.11550   0.30866382E-03
   0.11650   0.29827506E-03
   0.11750   0.29375099E-03
   0.11850   0.29328547E-03
   0.11950   0.29404229E-03
   0.12050   0.29277662E-03
   0.12150   0.28703240E-03
   0.12250   0.27636424E-03
   0.12350   0.26247912E-03
   0.12450   0.24809659E-03
   0.12550   0.23558704E-03
   0.12650   0.22629011E-03
   0.12750   0.22048318E-03
   0.12850   0.21758063E-03
   0.12950   0.21633737E-03
   0.13050   0.21510848E-03
   0.13150   0.21231052E-03
   0.13250   0.20704168E-03
   0.13350   0.19949589E-03
   0.13450   0.19081171E-03
   0.13550   0.18247128E-03
   0.13650   0.17571419E-03
   0.13750   0.17125676E-03
   0.13850   0.16926895E-03
   0.13950   0.16944736E-03
   0.14050   0.17110487E-03
   0.14150   0.17331107E-03
   0.14250   0.17515112E-03
   0.14350   0.17607538E-03
   0.14450   0.17615795E-03
   0.14550   0.17607609E-03
   0.14650   0.17683148E-03
   0.14750   0.17941748E-03
   0.14850   0.18459372E-03
   0.14950   0.19277690E-03
   0.15050   0.20398163E-03
   0.15150   0.21778054E-03
   0.15250   0.23333397E-03
   0.15350   0.24958188E-03
   0.15450   0.26561608E-03
   0.15550   0.28107784E-03
   0.15650   0.29633494E-03
   0.15750   0.31233268E-03
   0.15850   0.33023709E-03
   0.15950   0.35106184E-03
   0.16050   0.37537998E-03
   0.16150   0.40313092E-03
   0.16250   0.43352961E-03
   0.16350   0.46513186E-03
   0.16450   0.49612060E-03
   0.16550   0.52478584E-03
   0.16650   0.55001979E-03
   0.16750   0.57158154E-03
   0.16850   0.59000292E-03
   0.16950   0.60621131E-03
   0.17050   0.62104483E-03
   0.17150   0.63477439E-03
   0.17250   0.64658106E-03
   0.17350   0.65363367E-03
   0.17450   0.64835651E-03
   0.17550   0.61153533E-03
   0.17650   0.54223172E-03
   0.17750   0.47947359E-03
   0.17850   0.42799290E-03
   0.17950   0.38390007E-03
   0.18050   0.34491415E-03
   0.18150   0.30987649E-03
   0.18250   0.27815817E-03
   0.18350   0.24936508E-03
   0.18450   0.22320819E-03
   0.18550   0.19945901E-03
   0.18650   0.17794548E-03
   0.18750   0.15856184E-03
   0.18850   0.14127347E-03
   0.18950   0.12610576E-03
   0.19050   0.11311493E-03
   0.19150   0.10234856E-03
   0.19250   0.93809605E-04
   0.19350   0.87435408E-04
   0.19450   0.83094877E-04
   0.19550   0.80598933E-04
   0.19650   0.79715661E-04
   0.19750   0.80184684E-04
   0.19850   0.81729675E-04
   0.19950   0.84072046E-04
   0.20050   0.86948610E-04
   0.20150   0.90132766E-04
   0.20250   0.93454335E-04
   0.20350   0.96810960E-04
   0.20450   0.10016617E-03
   0.20550   0.10353457E-03
   0.20650   0.10695913E-03
   0.20750   0.11048770E-03
   0.20850   0.11415426E-03
   0.20950   0.11796859E-03
   0.21050   0.12191536E-03
   0.21150   0.12596266E-03
   0.21250   0.13007862E-03
   0.21350   0.13425475E-03
   0.21450   0.13853717E-03
   0.21550   0.14308064E-03
   0.21650   0.14829176E-03
   0.21750   0.15509650E-03
   0.21850   0.16317477E-03
   0.21950   0.17062228E-03
   0.22050   0.17733585E-03
   0.22150   0.18346499E-03
   0.22250   0.18897525E-03
   0.22350   0.19365379E-03
   0.22450   0.19709981E-03
   0.22550   0.19869319E-03
   0.22650   0.19757020E-03
   0.22750   0.19269490E-03
   0.22850   0.18328826E-03
   0.22950   0.17023097E-03
   0.23050   0.15920862E-03
   0.23150   0.16409808E-03
   0.23250   0.20249456E-03
   0.23350   0.27876324E-03
   0.23450   0.37276739E-03
   0.23550   0.44486162E-03
   0.23650   0.48760333E-03
   0.23750   0.51376096E-03
   0.23850   0.53044484E-03
   0.23950   0.54161414E-03
   0.24050   0.54955494E-03
   0.24150   0.55558089E-03
   0.24250   0.56043733E-03
   0.24350   0.56453666E-03
   0.24450   0.56809414E-03
   0.24550   0.57120773E-03
   0.24650   0.57390617E-03
   0.24750   0.57617849E-03
   0.24850   0.57799293E-03
   0.24950   0.57930895E-03
   0.25050   0.58008445E-03
   0.25150   0.58027980E-03
   0.25250   0.57985919E-03
   0.25350   0.57879061E-03
   0.25450   0.57704450E-03
   0.25550   0.57459180E-03
   0.25650   0.57140214E-03
   0.25750   0.56744204E-03
   0.25850   0.56267367E-03
   0.25950   0.55705436E-03
   0.26050   0.55053656E-03
   0.26150   0.54306816E-03
   0.26250   0.53459429E-03
   0.26350   0.52505831E-03
   0.26450   0.51440502E-03
   0.26550   0.50258357E-03
   0.26650   0.48955175E-03
   0.26750   0.47528211E-03
   0.26850   0.45976916E-03
   0.26950   0.44303859E-03
   0.27050   0.42515851E-03
   0.27150   0.40625167E-03
   0.27250   0.38650850E-03
   0.27350   0.36619854E-03
   0.27450   0.34567871E-03
   0.27550   0.32539526E-03
   0.27650   0.30587649E-03
   0.27750   0.28771439E-03
   0.27850   0.27153379E-03
   0.27950   0.25795080E-03
   0.28050   0.24752365E-03
   0.28150   0.24070285E-03
   0.28250   0.23778727E-03
   0.28350   0.23889387E-03
   0.28450   0.24394592E-03
   0.28550   0.25268120E-03
   0.28650   0.26467879E-03
   0.28750   0.27939864E-03
   0.28850   0.29622740E-03
   0.28950   0.31452344E-03
   0.29050   0.33365449E-03
   0.29150   0.35302332E-03
   0.29250   0.37207699E-03
   0.29350   0.39029311E-03
   0.29450   0.40712781E-03
   0.29550   0.42187789E-03
   0.29650   0.43329297E-03
   0.29750   0.43826670E-03
   0.29850   0.42718041E-03
   0.29950   0.38853570E-03
   0.30050   0.34773891E-03
   0.30150   0.31664874E-03
   0.30250   0.29241794E-03
   0.30350   0.27265187E-03
   0.30450   0.25596243E-03
   0.30550   0.24151796E-03
   0.30650   0.22878905E-03
   0.30750   0.21741912E-03
   0.30850   0.20715613E-03
   0.30950   0.19781406E-03
   0.31050   0.18925032E-03
   0.31150   0.18135164E-03
   0.31250   0.17402503E-03
   0.31350   0.16719174E-03
   0.31450   0.16078299E-03
   0.31550   0.15473695E-03
   0.31650   0.14899645E-03
   0.31750   0.14350726E-03
   0.31850   0.13821675E-03
   0.31950   0.13307283E-03
   0.32050   0.12802331E-03
   0.32150   0.12301572E-03
   0.32250   0.11799763E-03
   0.32350   0.11291799E-03
   0.32450   0.10772978E-03
   0.32550   0.10239470E-03
   0.32650   0.96890704E-04
   0.32750   0.91223403E-04
   0.32850   0.85442058E-04
   0.32950   0.79660560E-04
   0.33050   0.74081392E-04
   0.33150   0.69017515E-04
   0.33250   0.64900523E-04
   0.33350   0.62257022E-04
   0.33450   0.61630708E-04
   0.33550   0.63436659E-04
   0.33650   0.67764653E-04
   0.33750   0.74199990E-04
   0.33850   0.81771723E-04
   0.33950   0.89117260E-04
   0.34050   0.94843948E-04
   0.34150   0.97934491E-04
   0.34250   0.98000761E-04
   0.34350   0.95286654E-04
   0.34450   0.90470254E-04
   0.34550   0.84399464E-04
   0.34650   0.77876728E-04
   0.34750   0.71540555E-04
   0.34850   0.65833898E-04
   0.34950   0.61026218E-04
   0.35050   0.57257552E-04
   0.35150   0.54584565E-04
   0.35250   0.53019081E-04
   0.35350   0.52556741E-04
   0.35450   0.53196422E-04
   0.35550   0.54951772E-04
   0.35650   0.57855286E-04
   0.35750   0.61952836E-04
   0.35850   0.67282446E-04
   0.35950   0.73824376E-04
   0.36050   0.81401107E-04
   0.36150   0.89507725E-04
   0.36250   0.97105280E-04
   0.36350   0.10272576E-03
   0.36450   0.10550446E-03
   0.36550   0.10623297E-03
   0.36650   0.10798387E-03
   0.36750   0.11194968E-03
   0.36850   0.11264389E-03
   0.36950   0.10475743E-03
   0.37050   0.90168578E-04
   0.37150   0.73891133E-04
   0.37250   0.59275400E-04
   0.37350   0.47455098E-04
   0.37450   0.38367762E-04
   0.37550   0.31549636E-04
   0.37650   0.26500078E-04
   0.37750   0.22802282E-04
   0.37850   0.20144649E-04
   0.37950   0.18310255E-04
   0.38050   0.17151335E-04
   0.38150   0.16455804E-04
   0.38250   0.15404026E-04
   0.38350   0.13779573E-04
   0.38450   0.12280486E-04
   0.38550   0.11049073E-04
   0.38650   0.10052527E-04
   0.38750   0.92415667E-05
   0.38850   0.85744414E-05
   0.38950   0.80188302E-05
   0.39050   0.75502171E-05
   0.39150   0.71500440E-05
   0.39250   0.68041968E-05
   0.39350   0.65018735E-05
   0.39450   0.62347417E-05
   0.39550   0.59963245E-05
   0.39650   0.57815464E-05
   0.39750   0.55863948E-05
   0.39850   0.54076695E-05
   0.39950   0.52427908E-05
   0.40050   0.50896524E-05
   0.40150   0.49465079E-05
   0.40250   0.48118782E-05
   0.40350   0.46844707E-05
   0.40450   0.45631077E-05
   0.40550   0.44466492E-05
   0.40650   0.43338950E-05
   0.40750   0.42234460E-05
   0.40850   0.41134626E-05
   0.40950   0.40011937E-05
   0.41050   0.38819330E-05
   0.41150   0.37463199E-05
   0.41250   0.35720636E-05
   0.41350   0.32954488E-05
   0.41450   0.28018408E-05
   0.41550   0.22798010E-05
   0.41650   0.19046914E-05
   0.41750   0.16335661E-05
   0.41850   0.14272672E-05
   0.41950   0.12639847E-05
   0.42050   0.11310034E-05
   0.42150   0.10203636E-05
   0.42250   0.92677840E-06
   0.42350   0.84656853E-06
   0.42450   0.77707654E-06
   0.42550   0.71632491E-06
   0.42650   0.66280580E-06
   0.42750   0.61534558E-06
   0.42850   0.57301492E-06
   0.42950   0.53506710E-06
   0.43050   0.50089420E-06
   0.43150   0.46999580E-06
   0.43250   0.44195588E-06
   0.43350   0.41642551E-06
   0.43450   0.39310979E-06
   0.43550   0.37175755E-06
   0.43650   0.35215371E-06
   0.43750   0.33411277E-06
   0.43850   0.31747405E-06
   0.43950   0.30209767E-06
   0.44050   0.28786124E-06
   0.44150   0.27465722E-06
   0.44250   0.26239084E-06
   0.44350   0.25097822E-06
   0.44450   0.24034480E-06
   0.44550   0.23042428E-06
   0.44650   0.22115729E-06
   0.44750   0.21249076E-06
   0.44850   0.20437692E-06
   0.44950   0.19677277E-06
   0.45050   0.18963955E-06
   0.45150   0.18294210E-06
   0.45250   0.17664861E-06
   0.45350   0.17073013E-06
   0.45450   0.16516034E-06
   0.45550   0.15991519E-06
   0.45650   0.15497272E-06
   0.45750   0.15031286E-06
   0.45850   0.14591713E-06
   0.45950   0.14176862E-06
   0.46050   0.13785173E-06
   0.46150   0.13415210E-06
   0.46250   0.13065645E-06
   0.46350   0.12735252E-06
   0.46450   0.12422896E-06
   0.46550   0.12127519E-06
   0.46650   0.11848143E-06
   0.46750   0.11583854E-06
   0.46850   0.11333802E-06
   0.46950   0.11097190E-06
   0.47050   0.10873273E-06
   0.47150   0.10661355E-06
   0.47250   0.10460778E-06
   0.47350   0.10270923E-06
   0.47450   0.10091209E-06
   0.47550   0.99210837E-07
   0.47650   0.97600250E-07
   0.47750   0.96075389E-07
   0.47850   0.94631538E-07
   0.47950   0.93264219E-07
   0.48050   0.91969163E-07
   0.48150   0.90742319E-07
   0.48250   0.89579800E-07
   0.48350   0.88477933E-07
   0.48450   0.87433243E-07
   0.48550   0.86442441E-07
   0.48650   0.85502464E-07
   0.48750   0.84610477E-07
   0.48850   0.83763894E-07
   0.48950   0.82960376E-07
   0.49050   0.82197708E-07
   0.49150   0.81473559E-07
   0.49250   0.80784631E-07
   0.49350   0.80124316E-07
   0.49450   0.79475726E-07
   0.49550   0.78788808E-07
   0.49650   0.77891656E-07
   0.49750   0.76073619E-07
   0.49850   0.70883935E-07
   0.49950   0.62605203E-07
   0.50050   0.55113553E-07
   0.50150   0.48865026E-07
   0.50250   0.43557186E-07
   0.50350   0.38947967E-07
   0.50450   0.34877250E-07
   0.50550   0.31239658E-07
   0.50650   0.27966244E-07
   0.50750   0.25014423E-07
   0.50850   0.22363171E-07
   0.50950   0.20011925E-07
   0.51050   0.17982710E-07
   0.51150   0.16326039E-07
   0.51250   0.15132203E-07
   0.51350   0.14551611E-07
   0.51450   0.14831575E-07
   0.51550   0.16385769E-07
   0.51650   0.19934058E-07
   0.51750   0.26809962E-07
   0.51850   0.39716390E-07
   0.51950   0.64781901E-07
   0.52050   0.11526712E-06
   0.52150   0.18807292E-06
   0.52250   0.24748894E-06
   0.52350   0.29412107E-06
   0.52450   0.33459727E-06
   0.52550   0.37216381E-06
   0.52650   0.40857711E-06
   0.52750   0.44497423E-06
   0.52850   0.48218527E-06
   0.52950   0.52076740E-06
   0.53050   0.56062362E-06
   0.53150   0.59903169E-06
   0.53250   0.62045558E-06
   0.53350   0.57593394E-06
   0.53450   0.48925608E-06
   0.53550   0.41857024E-06
   0.53650   0.36556600E-06
   0.53750   0.32479269E-06
   0.53850   0.29246226E-06
   0.53950   0.26617849E-06
   0.54050   0.24438367E-06
   0.54150   0.22602438E-06
   0.54250   0.21036173E-06
   0.54350   0.19686107E-06
   0.54450   0.18512519E-06
   0.54550   0.17485245E-06
   0.54650   0.16580934E-06
   0.54750   0.15781218E-06
   0.54850   0.15071453E-06
   0.54950   0.14439819E-06
   0.55050   0.13876681E-06
   0.55150   0.13374120E-06
   0.55250   0.12925578E-06
   0.55350   0.12525595E-06
   0.55450   0.12169603E-06
   0.55550   0.11853776E-06
   0.55650   0.11574893E-06
   0.55750   0.11330261E-06
   0.55850   0.11117623E-06
   0.55950   0.10935106E-06
   0.56050   0.10781168E-06
   0.56150   0.10654565E-06
   0.56250   0.10554318E-06
   0.56350   0.10479693E-06
   0.56450   0.10430181E-06
   0.56550   0.10405489E-06
   0.56650   0.10405529E-06
   0.56750   0.10430421E-06
   0.56850   0.10480485E-06
   0.56950   0.10556258E-06
   0.57050   0.10658490E-06
   0.57150   0.10788166E-06
   0.57250   0.10946521E-06
   0.57350   0.11135062E-06
   0.57450   0.11355599E-06
   0.57550   0.11610277E-06
   0.57650   0.11901621E-06
   0.57750   0.12232591E-06
   0.57850   0.12606637E-06
   0.57950   0.13027783E-06
   0.58050   0.13500708E-06
   0.58150   0.14030871E-06
   0.58250   0.14624626E-06
   0.58350   0.15289395E-06
   0.58450   0.16033853E-06
   0.58550   0.16868171E-06
   0.58650   0.17804300E-06
   0.58750   0.18856326E-06
   0.58850   0.20040902E-06
   0.58950   0.21377782E-06
   0.59050   0.22890485E-06
   0.59150   0.24607121E-06
   0.59250   0.26561412E-06
   0.59350   0.28793997E-06
   0.59450   0.31354057E-06
   0.59550   0.34301382E-06
   0.59650   0.37709012E-06
   0.59750   0.41666610E-06
   0.59850   0.46284822E-06
   0.59950   0.51700908E-06
   0.60050   0.58086130E-06
   0.60150   0.65655416E-06
   0.60250   0.74680162E-06
   0.60350   0.85505354E-06
   0.60450   0.98572571E-06
   0.60550   0.11445134E-05
   0.60650   0.13388224E-05
   0.60750   0.15783733E-05
   0.60850   0.18760588E-05
   0.60950   0.22491943E-05
   0.61050   0.27213871E-05
   0.61150   0.33254428E-05
   0.61250   0.41080989E-05
   0.61350   0.51382117E-05
   0.61450   0.65219756E-05
   0.61550   0.84333715E-05
   0.61650   0.11174184E-04
   0.61750   0.15178370E-04
   0.61850   0.19718722E-04
   0.61950   0.22691773E-04
   0.62050   0.24563209E-04
   0.62150   0.25775145E-04
   0.62250   0.26284128E-04
   0.62350   0.26229605E-04
   0.62450   0.26134259E-04
   0.62550   0.26126487E-04
   0.62650   0.26198433E-04
   0.62750   0.26330577E-04
   0.62850   0.26505535E-04
   0.62950   0.26708754E-04
   0.63050   0.26927864E-04
   0.63150   0.27152113E-04
   0.63250   0.27371978E-04
   0.63350   0.27578933E-04
   0.63450   0.27765314E-04
   0.63550   0.27924252E-04
   0.63650   0.28049632E-04
   0.63750   0.28136084E-04
   0.63850   0.28178958E-04
   0.63950   0.28174296E-04
   0.64050   0.28118771E-04
   0.64150   0.28009603E-04
   0.64250   0.27844431E-04
   0.64350   0.27621159E-04
   0.64450   0.27337761E-04
   0.64550   0.26992084E-04
   0.64650   0.26581652E-04
   0.64750   0.26103527E-04
   0.64850   0.25554302E-04
   0.64950   0.24930394E-04
   0.65050   0.24229088E-04
   0.65150   0.23451912E-04
   0.65250   0.22620990E-04
   0.65350   0.22285829E-04
   0.65450   0.19619449E-04
   0.65550   0.19059573E-04
   0.65650   0.18007313E-04
   0.65750   0.16987860E-04
   0.65850   0.16209318E-04
   0.65950   0.15970729E-04
   0.66050   0.16745656E-04
   0.66150   0.19259283E-04
   0.66250   0.24552541E-04
   0.66350   0.34018954E-04
   0.66450   0.49551767E-04
   0.66550   0.73106370E-04
   0.66650   0.98590041E-04
   0.66750   0.12022798E-03
   0.66850   0.14334155E-03
   0.66950   0.20925843E-03
   0.67050   0.66691230E-03
   0.67150   0.86363615E-03
   0.67250   0.80322486E-03
   0.67350   0.28802123E-03
   0.67450   0.19047939E-03
   0.67550   0.13227719E-03
   0.67650   0.11779016E-03
   0.67750   0.11818766E-03
   0.67850   0.93046248E-04
   0.67950   0.73984644E-04
   0.68050   0.96047668E-04
   0.68150   0.17991621E-03
   0.68250   0.37035410E-03
   0.68350   0.13050451E-02
   0.68450   0.69748531E-02
   0.68550   0.90956520E-02
   0.68650   0.22354284E-01
   0.68750   0.78195818E-01
   0.68850   0.23214666E-01
   0.68950   0.27360236E-01
   0.69050   0.20035739E+00
   0.69150   0.25510052E+00
   0.69250   0.17589872E+00
   0.69350   0.13257714E+00
   0.69450   0.14630103E+00
   0.69550   0.21990430E+00
   0.69650   0.16455579E+00
   0.69750   0.18619841E+00
   0.69850   0.15045135E+00
   0.69950   0.61637107E-01
   0.70050   0.40419437E-01
   0.70150   0.92392206E-01
   0.70250   0.21657744E-01
   0.70350   0.13169556E-01
   0.70450   0.95965974E-02
   0.70550   0.74767517E-02
   0.70650   0.64605856E-02
   0.70750   0.58904761E-02
   0.70850   0.54164026E-02
   0.70950   0.48856717E-02
   0.71050   0.42656017E-02
   0.71150   0.35847744E-02
   0.71250   0.28955878E-02
   0.71350   0.22608289E-02
   0.71450   0.17371307E-02
   0.71550   0.13552975E-02
   0.71650   0.11137220E-02
   0.71750   0.98538364E-03
   0.71850   0.93202351E-03
   0.71950   0.91793906E-03
   0.72050   0.91741275E-03
   0.72150   0.91555284E-03
   0.72250   0.90572285E-03
   0.72350   0.88633632E-03
   0.72450   0.85831451E-03
   0.72550   0.82348613E-03
   0.72650   0.78376982E-03
   0.72750   0.74086437E-03
   0.72850   0.69619954E-03
   0.72950   0.65101270E-03
   0.73050   0.60661306E-03
   0.73150   0.56540879E-03
   0.73250   0.53318887E-03
   0.73350   0.50766522E-03
   0.73450   0.47974606E-03
   0.73550   0.44972755E-03
   0.73650   0.41914859E-03
   0.73750   0.38902409E-03
   0.73850   0.35996627E-03
   0.73950   0.33232305E-03
   0.74050   0.30626883E-03
   0.74150   0.28187042E-03
   0.74250   0.25913669E-03
   0.74350   0.23805251E-03
   0.74450   0.21859753E-03
   0.74550   0.20075210E-03
   0.74650   0.18449489E-03
   0.74750   0.16979763E-03
   0.74850   0.15662065E-03
   0.74950   0.14491148E-03
   0.75050   0.13460629E-03
   0.75150   0.12563300E-03
   0.75250   0.11791493E-03
   0.75350   0.11137386E-03
   0.75450   0.10593243E-03
   0.75550   0.10151570E-03
   0.75650   0.98052478E-04
   0.75750   0.95476666E-04
   0.75850   0.93728740E-04
   0.75950   0.92757495E-04
   0.76050   0.92521652E-04
   0.76150   0.92991162E-04
   0.76250   0.94147472E-04
   0.76350   0.95982556E-04
   0.76450   0.98496457E-04
   0.76550   0.10169359E-03
   0.76650   0.10557853E-03
   0.76750   0.11015236E-03
   0.76850   0.11541032E-03
   0.76950   0.12134139E-03
   0.77050   0.12792957E-03
   0.77150   0.13515582E-03
   0.77250   0.14300001E-03
   0.77350   0.15144200E-03
   0.77450   0.16046256E-03
   0.77550   0.17004552E-03
   0.77650   0.18018321E-03
   0.77750   0.19088711E-03
   0.77850   0.20220260E-03
   0.77950   0.21421435E-03
   0.78050   0.22694041E-03
   0.78150   0.23928260E-03
   0.78250   0.24484561E-03
   0.78350   0.24185743E-03
   0.78450   0.23650026E-03
   0.78550   0.23063130E-03
   0.78650   0.22459771E-03
   0.78750   0.21848734E-03
   0.78850   0.21233315E-03
   0.78950   0.20614927E-03
   0.79050   0.19993882E-03
   0.79150   0.19369823E-03
   0.79250   0.18742266E-03
   0.79350   0.18111184E-03
   0.79450   0.17477508E-03
   0.79550   0.16843408E-03
   0.79650   0.16212311E-03
   0.79750   0.15588682E-03
   0.79850   0.14977659E-03
   0.79950   0.14384642E-03
   0.80050   0.13814960E-03
   0.80150   0.13273634E-03
   0.80250   0.12765288E-03
   0.80350   0.12294140E-03
   0.80450   0.11864062E-03
   0.80550   0.11478645E-03
   0.80650   0.11141258E-03
   0.80750   0.10855075E-03
   0.80850   0.10623084E-03
   0.80950   0.10448079E-03
   0.81050   0.10332660E-03
   0.81150   0.10279234E-03
   0.81250   0.10290023E-03
   0.81350   0.10367103E-03
   0.81450   0.10512447E-03
   0.81550   0.10728004E-03
   0.81650   0.11015824E-03
   0.81750   0.11378244E-03
   0.81850   0.11818186E-03
   0.81950   0.12339608E-03
   0.82050   0.12948274E-03
   0.82150   0.13653119E-03
   0.82250   0.14469108E-03
   0.82350   0.15424316E-03
   0.82450   0.16581683E-03
   0.82550   0.18102489E-03
   0.82650   0.20087078E-03
   0.82750   0.22149734E-03
   0.82850   0.24203472E-03
   0.82950   0.26318140E-03
   0.83050   0.28550436E-03
   0.83150   0.30944878E-03
   0.83250   0.33540651E-03
   0.83350   0.36375134E-03
   0.83450   0.39485825E-03
   0.83550   0.42911823E-03
   0.83650   0.46695635E-03
   0.83750   0.50886004E-03
   0.83850   0.55542396E-03
   0.83950   0.60741091E-03
   0.84050   0.66577521E-03
   0.84150   0.73121540E-03
   0.84250   0.79974346E-03
   0.84350   0.84367109E-03
   0.84450   0.85259834E-03
   0.84550   0.85460948E-03
   0.84650   0.85560378E-03
   0.84750   0.84983651E-03
   0.84850   0.83135476E-03
   0.84950   0.81471406E-03
   0.85050   0.80453180E-03
   0.85150   0.79904625E-03
   0.85250   0.79693506E-03
   0.85350   0.79747761E-03
   0.85450   0.80032111E-03
   0.85550   0.80533064E-03
   0.85650   0.81249484E-03
   0.85750   0.82186057E-03
   0.85850   0.83348592E-03
   0.85950   0.84740552E-03
   0.86050   0.86360815E-03
   0.86150   0.88202371E-03
   0.86250   0.90252195E-03
   0.86350   0.92492055E-03
   0.86450   0.94900455E-03
   0.86550   0.97455451E-03
   0.86650   0.10013817E-02
   0.86750   0.10293651E-02
   0.86850   0.10584871E-02
   0.86950   0.10888594E-02
   0.87050   0.11207387E-02
   0.87150   0.11545280E-02
   0.87250   0.11907670E-02
   0.87350   0.12301150E-02
   0.87450   0.12733330E-02
   0.87550   0.13212744E-02
   0.87650   0.13748892E-02
   0.87750   0.14352512E-02
   0.87850   0.15036144E-02
   0.87950   0.15815005E-02
   0.88050   0.16708189E-02
   0.88150   0.17740201E-02
   0.88250   0.18943014E-02
   0.88350   0.20359140E-02
   0.88450   0.22047062E-02
   0.88550   0.24091427E-02
   0.88650   0.26622482E-02
   0.88750   0.29853168E-02
   0.88850   0.34153496E-02
   0.88950   0.40218933E-02
   0.89050   0.49532382E-02
   0.89150   0.66000014E-02
   0.89250   0.10421021E-01
   0.89350   0.26099702E-01
   0.89450   0.11562380E+00
   0.89550   0.65072611E-01
   0.89650   0.20431913E+00
   0.89750   0.80165714E-01
   0.89850   0.33190995E-01
   0.89950   0.32006226E-01
   0.90050   0.39490554E-01
   0.90150   0.59683066E-01
   0.90250   0.13714939E+00
   0.90350   0.19331770E+00
   0.90450   0.16165158E+00
   0.90550   0.13447131E+00
   0.90650   0.21907686E+00
   0.90750   0.14984880E+00
   0.90850   0.17637859E+00
   0.90950   0.34572932E+00
   0.91050   0.75974774E+00
   0.91150   0.62816656E+00
   0.91250   0.52854651E+00
   0.91350   0.40278420E+00
   0.91450   0.33137390E+00
   0.91550   0.26808703E+00
   0.91650   0.23635302E+00
   0.91750   0.24156311E+00
   0.91850   0.23032732E+00
   0.91950   0.24891572E+00
   0.92050   0.27720690E+00
   0.92150   0.28811833E+00
   0.92250   0.28957316E+00
   0.92350   0.29483962E+00
   0.92450   0.30707368E+00
   0.92550   0.32578722E+00
   0.92650   0.33268428E+00
   0.92750   0.33770514E+00
   0.92850   0.40340713E+00
   0.92950   0.52005577E+00
   0.93050   0.63680929E+00
   0.93150   0.66117567E+00
   0.93250   0.43468970E+00
   0.93350   0.27757651E+00
   0.93450   0.28040910E+00
   0.93550   0.22814801E+00
   0.93650   0.17862517E+00
   0.93750   0.15276521E+00
   0.93850   0.14092816E+00
   0.93950   0.13834327E+00
   0.94050   0.14365380E+00
   0.94150   0.15558055E+00
   0.94250   0.17206153E+00
   0.94350   0.18972525E+00
   0.94450   0.20449124E+00
   0.94550   0.21266700E+00
   0.94650   0.21331443E+00
   0.94750   0.20830637E+00
   0.94850   0.20212992E+00
   0.94950   0.19749068E+00
   0.95050   0.19455625E+00
   0.95150   0.19441286E+00
   0.95250   0.19796975E+00
   0.95350   0.20404696E+00
   0.95450   0.20889360E+00
   0.95550   0.20878062E+00
   0.95650   0.20431413E+00
   0.95750   0.19920839E+00
   0.95850   0.19703005E+00
   0.95950   0.19974621E+00
   0.96050   0.20823030E+00
   0.96150   0.22239296E+00
   0.96250   0.23916712E+00
   0.96350   0.24746525E+00
   0.96450   0.23002082E+00
   0.96550   0.19249626E+00
   0.96650   0.16027324E+00
   0.96750   0.14047503E+00
   0.96850   0.12900674E+00
   0.96950   0.12211423E+00
   0.97050   0.11777306E+00
   0.97150   0.11498159E+00
   0.97250   0.11325730E+00
   0.97350   0.11237772E+00
   0.97450   0.11223498E+00
   0.97550   0.11277618E+00
   0.97650   0.11403431E+00
   0.97750   0.11587892E+00
   0.97850   0.11808779E+00
   0.97950   0.12048298E+00
   0.98050   0.12296864E+00
   0.98150   0.12555279E+00
   0.98250   0.12832443E+00
   0.98350   0.13140537E+00
   0.98450   0.13491683E+00
   0.98550   0.13898395E+00
   0.98650   0.14378950E+00
   0.98750   0.14970817E+00
   0.98850   0.15763520E+00
   0.98950   0.16859281E+00
   0.99050   0.18177566E+00
   0.99150   0.19729334E+00
   0.99250   0.21570042E+00
   0.99350   0.23665515E+00
   0.99450   0.25799900E+00
   0.99550   0.27641746E+00
   0.99650   0.28948268E+00
   0.99750   0.29697576E+00
   0.99850   0.30056354E+00
   0.99950   0.30252445E+00
