# Transmission, k-averaged
# Date: 2021-05-13
#   E [eV]           T [G0]
   0.00050   0.41309536E+00
   0.00150   0.19329420E+00
   0.00250   0.19954965E+00
   0.00350   0.15924625E+00
   0.00450   0.95426686E-01
   0.00550   0.74271798E-01
   0.00650   0.12583211E+00
   0.00750   0.73232763E-01
   0.00850   0.10180020E+00
   0.00950   0.99133439E-01
   0.01050   0.62829949E-01
   0.01150   0.11084785E+00
   0.01250   0.93310133E-01
   0.01350   0.49123593E-01
   0.01450   0.65477483E-01
   0.01550   0.13420671E+00
   0.01650   0.49763929E-01
   0.01750   0.28151881E-01
   0.01850   0.41111331E-01
   0.01950   0.13905101E+00
   0.02050   0.31778563E-01
   0.02150   0.12115429E-01
   0.02250   0.12221138E-01
   0.02350   0.44717222E-01
   0.02450   0.45270830E-01
   0.02550   0.95362216E-02
   0.02650   0.79783052E-02
   0.02750   0.17075824E-01
   0.02850   0.93777791E-01
   0.02950   0.61017867E-01
   0.03050   0.29141573E-01
   0.03150   0.29155659E-01
   0.03250   0.45650266E-01
   0.03350   0.79044402E-01
   0.03450   0.86980417E-01
   0.03550   0.71480952E-01
   0.03650   0.64928733E-01
   0.03750   0.67057237E-01
   0.03850   0.71870975E-01
   0.03950   0.74695744E-01
   0.04050   0.75089931E-01
   0.04150   0.74461907E-01
   0.04250   0.73231198E-01
   0.04350   0.71353301E-01
   0.04450   0.67665420E-01
   0.04550   0.58754846E-01
   0.04650   0.48620824E-01
   0.04750   0.40369455E-01
   0.04850   0.34161575E-01
   0.04950   0.30046623E-01
   0.05050   0.27793314E-01
   0.05150   0.26873946E-01
   0.05250   0.26447589E-01
   0.05350   0.25468191E-01
   0.05450   0.23339715E-01
   0.05550   0.20507025E-01
   0.05650   0.17894026E-01
   0.05750   0.16069610E-01
   0.05850   0.15146663E-01
   0.05950   0.14990840E-01
   0.06050   0.15292090E-01
   0.06150   0.15520482E-01
   0.06250   0.15073148E-01
   0.06350   0.13774533E-01
   0.06450   0.12073217E-01
   0.06550   0.10539365E-01
   0.06650   0.94599389E-02
   0.06750   0.88731376E-02
   0.06850   0.87019736E-02
   0.06950   0.87981327E-02
   0.07050   0.89192446E-02
   0.07150   0.87580420E-02
   0.07250   0.81366478E-02
   0.07350   0.71862885E-02
   0.07450   0.62077800E-02
   0.07550   0.54167015E-02
   0.07650   0.48817536E-02
   0.07750   0.45867218E-02
   0.07850   0.44792779E-02
   0.07950   0.44768630E-02
   0.08050   0.44545792E-02
   0.08150   0.42709326E-02
   0.08250   0.38682893E-02
   0.08350   0.33385137E-02
   0.08450   0.28331059E-02
   0.08550   0.24479404E-02
   0.08650   0.22098229E-02
   0.08750   0.21126333E-02
   0.08850   0.21390037E-02
   0.08950   0.22514870E-02
   0.09050   0.23598529E-02
   0.09150   0.23194938E-02
   0.09250   0.20618059E-02
   0.09350   0.18160866E-02
   0.09450   0.17341784E-02
   0.09550   0.18117160E-02
   0.09650   0.20215323E-02
   0.09750   0.23100555E-02
   0.09850   0.25865627E-02
   0.09950   0.27720099E-02
   0.10050   0.28630227E-02
   0.10150   0.29116701E-02
   0.10250   0.29628568E-02
   0.10350   0.30287104E-02
   0.10450   0.30964513E-02
   0.10550   0.31453858E-02
   0.10650   0.31616536E-02
   0.10750   0.31446896E-02
   0.10850   0.31041573E-02
   0.10950   0.30525401E-02
   0.11050   0.29994957E-02
   0.11150   0.29500243E-02
   0.11250   0.29052822E-02
   0.11350   0.28643119E-02
   0.11450   0.28256131E-02
   0.11550   0.27881307E-02
   0.11650   0.27516088E-02
   0.11750   0.27164745E-02
   0.11850   0.26834821E-02
   0.11950   0.26533427E-02
   0.12050   0.26264645E-02
   0.12150   0.26028596E-02
   0.12250   0.25821859E-02
   0.12350   0.25638796E-02
   0.12450   0.25473170E-02
   0.12550   0.25319615E-02
   0.12650   0.25174597E-02
   0.12750   0.25036738E-02
   0.12850   0.24906551E-02
   0.12950   0.24785760E-02
   0.13050   0.24676446E-02
   0.13150   0.24580238E-02
   0.13250   0.24497756E-02
   0.13350   0.24428361E-02
   0.13450   0.24370223E-02
   0.13550   0.24320656E-02
   0.13650   0.24276606E-02
   0.13750   0.24235209E-02
   0.13850   0.24194245E-02
   0.13950   0.24152480E-02
   0.14050   0.24109762E-02
   0.14150   0.24066928E-02
   0.14250   0.24025519E-02
   0.14350   0.23987412E-02
   0.14450   0.23954392E-02
   0.14550   0.23927812E-02
   0.14650   0.23908331E-02
   0.14750   0.23895814E-02
   0.14850   0.23889365E-02
   0.14950   0.23887497E-02
   0.15050   0.23888408E-02
   0.15150   0.23890270E-02
   0.15250   0.23891563E-02
   0.15350   0.23891299E-02
   0.15450   0.23889181E-02
   0.15550   0.23885635E-02
   0.15650   0.23881712E-02
   0.15750   0.23878901E-02
   0.15850   0.23878866E-02
   0.15950   0.23883157E-02
   0.16050   0.23892960E-02
   0.16150   0.23908874E-02
   0.16250   0.23930785E-02
   0.16350   0.23957836E-02
   0.16450   0.23988460E-02
   0.16550   0.24020476E-02
   0.16650   0.24051201E-02
   0.16750   0.24077490E-02
   0.16850   0.24095576E-02
   0.16950   0.24100509E-02
   0.17050   0.24084703E-02
   0.17150   0.24034425E-02
   0.17250   0.23920797E-02
   0.17350   0.23672993E-02
   0.17450   0.23082525E-02
   0.17550   0.21542185E-02
   0.17650   0.19047901E-02
   0.17750   0.16958482E-02
   0.17850   0.15395720E-02
   0.17950   0.14179623E-02
   0.18050   0.13195459E-02
   0.18150   0.12375512E-02
   0.18250   0.11677516E-02
   0.18350   0.11073536E-02
   0.18450   0.10544219E-02
   0.18550   0.10075648E-02
   0.18650   0.96575107E-03
   0.18750   0.92819706E-03
   0.18850   0.89429429E-03
   0.18950   0.86356176E-03
   0.19050   0.83561242E-03
   0.19150   0.81013073E-03
   0.19250   0.78685634E-03
   0.19350   0.76557300E-03
   0.19450   0.74610085E-03
   0.19550   0.72829181E-03
   0.19650   0.71202661E-03
   0.19750   0.69721456E-03
   0.19850   0.68379444E-03
   0.19950   0.67173777E-03
   0.20050   0.66105463E-03
   0.20150   0.65180240E-03
   0.20250   0.64409990E-03
   0.20350   0.63814945E-03
   0.20450   0.63427171E-03
   0.20550   0.63296326E-03
   0.20650   0.63499366E-03
   0.20750   0.64157543E-03
   0.20850   0.65467390E-03
   0.20950   0.67760010E-03
   0.21050   0.71620726E-03
   0.21150   0.78145228E-03
   0.21250   0.89520519E-03
   0.21350   0.11037834E-02
   0.21450   0.15053998E-02
   0.21550   0.22455493E-02
   0.21650   0.30670450E-02
   0.21750   0.29791771E-02
   0.21850   0.26031907E-02
   0.21950   0.24066817E-02
   0.22050   0.22957986E-02
   0.22150   0.22273059E-02
   0.22250   0.21846839E-02
   0.22350   0.21602754E-02
   0.22450   0.21501081E-02
   0.22550   0.21520681E-02
   0.22650   0.21651473E-02
   0.22750   0.21891210E-02
   0.22850   0.22244342E-02
   0.22950   0.22722282E-02
   0.23050   0.23344860E-02
   0.23150   0.24142622E-02
   0.23250   0.25156063E-02
   0.23350   0.26394494E-02
   0.23450   0.27451578E-02
   0.23550   0.27054881E-02
   0.23650   0.25802215E-02
   0.23750   0.24516359E-02
   0.23850   0.23341724E-02
   0.23950   0.22284735E-02
   0.24050   0.21331375E-02
   0.24150   0.20466535E-02
   0.24250   0.19677270E-02
   0.24350   0.18952958E-02
   0.24450   0.18284951E-02
   0.24550   0.17666145E-02
   0.24650   0.17090657E-02
   0.24750   0.16553563E-02
   0.24850   0.16050702E-02
   0.24950   0.15578534E-02
   0.25050   0.15134023E-02
   0.25150   0.14714550E-02
   0.25250   0.14317845E-02
   0.25350   0.13941926E-02
   0.25450   0.13585063E-02
   0.25550   0.13245729E-02
   0.25650   0.12922578E-02
   0.25750   0.12614410E-02
   0.25850   0.12320152E-02
   0.25950   0.12038840E-02
   0.26050   0.11769598E-02
   0.26150   0.11511632E-02
   0.26250   0.11264210E-02
   0.26350   0.11026661E-02
   0.26450   0.10798364E-02
   0.26550   0.10578742E-02
   0.26650   0.10367262E-02
   0.26750   0.10163428E-02
   0.26850   0.99667802E-03
   0.26950   0.97768928E-03
   0.27050   0.95933734E-03
   0.27150   0.94158587E-03
   0.27250   0.92440163E-03
   0.27350   0.90775406E-03
   0.27450   0.89161505E-03
   0.27550   0.87595894E-03
   0.27650   0.86076214E-03
   0.27750   0.84600272E-03
   0.27850   0.83166041E-03
   0.27950   0.81771635E-03
   0.28050   0.80415257E-03
   0.28150   0.79095206E-03
   0.28250   0.77809853E-03
   0.28350   0.76557603E-03
   0.28450   0.75336872E-03
   0.28550   0.74146088E-03
   0.28650   0.72983617E-03
   0.28750   0.71847707E-03
   0.28850   0.70736377E-03
   0.28950   0.69647201E-03
   0.29050   0.68576954E-03
   0.29150   0.67520968E-03
   0.29250   0.66471775E-03
   0.29350   0.65416453E-03
   0.29450   0.64330513E-03
   0.29550   0.63162582E-03
   0.29650   0.61789475E-03
   0.29750   0.59856824E-03
   0.29850   0.56181772E-03
   0.29950   0.49270777E-03
   0.30050   0.42410369E-03
   0.30150   0.37145588E-03
   0.30250   0.33039559E-03
   0.30350   0.29718297E-03
   0.30450   0.26954766E-03
   0.30550   0.24606698E-03
   0.30650   0.22579865E-03
   0.30750   0.20808759E-03
   0.30850   0.19246034E-03
   0.30950   0.17856383E-03
   0.31050   0.16612808E-03
   0.31150   0.15494242E-03
   0.31250   0.14483969E-03
   0.31350   0.13568556E-03
   0.31450   0.12737083E-03
   0.31550   0.11980606E-03
   0.31650   0.11291758E-03
   0.31750   0.10664449E-03
   0.31850   0.10093642E-03
   0.31950   0.95751835E-04
   0.32050   0.91056681E-04
   0.32150   0.86823406E-04
   0.32250   0.83030158E-04
   0.32350   0.79660189E-04
   0.32450   0.76701399E-04
   0.32550   0.74146039E-04
   0.32650   0.71990442E-04
   0.32750   0.70234913E-04
   0.32850   0.68883695E-04
   0.32950   0.67944944E-04
   0.33050   0.67430847E-04
   0.33150   0.67357767E-04
   0.33250   0.67746420E-04
   0.33350   0.68622183E-04
   0.33450   0.70015310E-04
   0.33550   0.71961324E-04
   0.33650   0.74501222E-04
   0.33750   0.77681769E-04
   0.33850   0.81555540E-04
   0.33950   0.86180786E-04
   0.34050   0.91620801E-04
   0.34150   0.97942677E-04
   0.34250   0.10521500E-03
   0.34350   0.11350403E-03
   0.34450   0.12286782E-03
   0.34550   0.13334739E-03
   0.34650   0.14495423E-03
   0.34750   0.15765349E-03
   0.34850   0.17134250E-03
   0.34950   0.18582596E-03
   0.35050   0.20079064E-03
   0.35150   0.21578585E-03
   0.35250   0.23021967E-03
   0.35350   0.24338237E-03
   0.35450   0.25450764E-03
   0.35550   0.26287310E-03
   0.35650   0.26792797E-03
   0.35750   0.26942158E-03
   0.35850   0.26750818E-03
   0.35950   0.26283762E-03
   0.36050   0.25676403E-03
   0.36150   0.25227101E-03
   0.36250   0.25723394E-03
   0.36350   0.27548746E-03
   0.36450   0.29215237E-03
   0.36550   0.30455881E-03
   0.36650   0.31446107E-03
   0.36750   0.32305927E-03
   0.36850   0.33107624E-03
   0.36950   0.33898655E-03
   0.37050   0.34714065E-03
   0.37150   0.35583248E-03
   0.37250   0.36534134E-03
   0.37350   0.37596357E-03
   0.37450   0.38804321E-03
   0.37550   0.40200891E-03
   0.37650   0.41842624E-03
   0.37750   0.43807784E-03
   0.37850   0.46208868E-03
   0.37950   0.49208384E-03
   0.38050   0.52996312E-03
   0.38150   0.57257264E-03
   0.38250   0.58601622E-03
   0.38350   0.55872701E-03
   0.38450   0.52322587E-03
   0.38550   0.48931892E-03
   0.38650   0.45846298E-03
   0.38750   0.43061809E-03
   0.38850   0.40548362E-03
   0.38950   0.38274672E-03
   0.39050   0.36213271E-03
   0.39150   0.34340980E-03
   0.39250   0.32638339E-03
   0.39350   0.31088915E-03
   0.39450   0.29678678E-03
   0.39550   0.28395499E-03
   0.39650   0.27228761E-03
   0.39750   0.26169041E-03
   0.39850   0.25207872E-03
   0.39950   0.24337553E-03
   0.40050   0.23550988E-03
   0.40150   0.22841549E-03
   0.40250   0.22202962E-03
   0.40350   0.21629190E-03
   0.40450   0.21114307E-03
   0.40550   0.20652336E-03
   0.40650   0.20237027E-03
   0.40750   0.19861496E-03
   0.40850   0.19517580E-03
   0.40950   0.19194566E-03
   0.41050   0.18876366E-03
   0.41150   0.18534325E-03
   0.41250   0.18105429E-03
   0.41350   0.17418461E-03
   0.41450   0.16174937E-03
   0.41550   0.14877452E-03
   0.41650   0.13991212E-03
   0.41750   0.13405843E-03
   0.41850   0.13018333E-03
   0.41950   0.12770722E-03
   0.42050   0.12629152E-03
   0.42150   0.12572632E-03
   0.42250   0.12587580E-03
   0.42350   0.12665012E-03
   0.42450   0.12798986E-03
   0.42550   0.12985698E-03
   0.42650   0.13222940E-03
   0.42750   0.13509758E-03
   0.42850   0.13846258E-03
   0.42950   0.14233496E-03
   0.43050   0.14673443E-03
   0.43150   0.15169024E-03
   0.43250   0.15724220E-03
   0.43350   0.16344279E-03
   0.43450   0.17036041E-03
   0.43550   0.17808483E-03
   0.43650   0.18673569E-03
   0.43750   0.19647613E-03
   0.43850   0.20753434E-03
   0.43950   0.22023648E-03
   0.44050   0.23505045E-03
   0.44150   0.25261202E-03
   0.44250   0.27357345E-03
   0.44350   0.29761877E-03
   0.44450   0.32000308E-03
   0.44550   0.32757563E-03
   0.44650   0.31488485E-03
   0.44750   0.29911500E-03
   0.44850   0.29248704E-03
   0.44950   0.29360989E-03
   0.45050   0.29845949E-03
   0.45150   0.30437447E-03
   0.45250   0.31031814E-03
   0.45350   0.31756470E-03
   0.45450   0.33230364E-03
   0.45550   0.36833686E-03
   0.45650   0.43185070E-03
   0.45750   0.49158779E-03
   0.45850   0.53079124E-03
   0.45950   0.58156799E-03
   0.46050   0.67409629E-03
   0.46150   0.81501738E-03
   0.46250   0.10178727E-02
   0.46350   0.12732474E-02
   0.46450   0.14601955E-02
   0.46550   0.15245148E-02
   0.46650   0.15825586E-02
   0.46750   0.17218343E-02
   0.46850   0.19397611E-02
   0.46950   0.22876253E-02
   0.47050   0.23931591E-02
   0.47150   0.38684278E-02
   0.47250   0.64945538E-02
   0.47350   0.80081951E-02
   0.47450   0.68202494E-02
   0.47550   0.64004590E-02
   0.47650   0.64003477E-02
   0.47750   0.62483414E-02
   0.47850   0.57231365E-02
   0.47950   0.49766256E-02
   0.48050   0.44049118E-02
   0.48150   0.44081206E-02
   0.48250   0.48331544E-02
   0.48350   0.52702245E-02
   0.48450   0.55651958E-02
   0.48550   0.57428521E-02
   0.48650   0.58319336E-02
   0.48750   0.58475812E-02
   0.48850   0.58094389E-02
   0.48950   0.57409094E-02
   0.49050   0.56591588E-02
   0.49150   0.55710389E-02
   0.49250   0.54763840E-02
   0.49350   0.53738039E-02
   0.49450   0.52646855E-02
   0.49550   0.51537091E-02
   0.49650   0.50469530E-02
   0.49750   0.49499092E-02
   0.49850   0.48661404E-02
   0.49950   0.47924235E-02
   0.50050   0.47249724E-02
   0.50150   0.46631447E-02
   0.50250   0.46069128E-02
   0.50350   0.45570210E-02
   0.50450   0.45148586E-02
   0.50550   0.44820169E-02
   0.50650   0.44598361E-02
   0.50750   0.44491393E-02
   0.50850   0.44502136E-02
   0.50950   0.44630044E-02
   0.51050   0.44874279E-02
   0.51150   0.45237090E-02
   0.51250   0.45726611E-02
   0.51350   0.46358588E-02
   0.51450   0.47157188E-02
   0.51550   0.48155268E-02
   0.51650   0.49394486E-02
   0.51750   0.50923890E-02
   0.51850   0.52785743E-02
   0.51950   0.54914528E-02
   0.52050   0.56459606E-02
   0.52150   0.54899706E-02
   0.52250   0.51668314E-02
   0.52350   0.48775100E-02
   0.52450   0.46403776E-02
   0.52550   0.44464185E-02
   0.52650   0.42868732E-02
   0.52750   0.41553495E-02
   0.52850   0.40473291E-02
   0.52950   0.39594886E-02
   0.53050   0.38886606E-02
   0.53150   0.38284585E-02
   0.53250   0.37523897E-02
   0.53350   0.35729783E-02
   0.53450   0.33132771E-02
   0.53550   0.30762732E-02
   0.53650   0.28718631E-02
   0.53750   0.26925551E-02
   0.53850   0.25317001E-02
   0.53950   0.23842952E-02
   0.54050   0.22464311E-02
   0.54150   0.21148694E-02
   0.54250   0.19868878E-02
   0.54350   0.18604471E-02
   0.54450   0.17347514E-02
   0.54550   0.16111097E-02
   0.54650   0.14935799E-02
   0.54750   0.13884163E-02
   0.54850   0.13017575E-02
   0.54950   0.12366780E-02
   0.55050   0.11918597E-02
   0.55150   0.11627674E-02
   0.55250   0.11439595E-02
   0.55350   0.11308170E-02
   0.55450   0.11201577E-02
   0.55550   0.11101096E-02
   0.55650   0.10997345E-02
   0.55750   0.10886694E-02
   0.55850   0.10768726E-02
   0.55950   0.10644611E-02
   0.56050   0.10516177E-02
   0.56150   0.10385390E-02
   0.56250   0.10254093E-02
   0.56350   0.10123886E-02
   0.56450   0.99960912E-03
   0.56550   0.98717574E-03
   0.56650   0.97516994E-03
   0.56750   0.96365367E-03
   0.56850   0.95267408E-03
   0.56950   0.94226759E-03
   0.57050   0.93246339E-03
   0.57150   0.92328608E-03
   0.57250   0.91475778E-03
   0.57350   0.90689881E-03
   0.57450   0.89972862E-03
   0.57550   0.89326542E-03
   0.57650   0.88752573E-03
   0.57750   0.88252360E-03
   0.57850   0.87826914E-03
   0.57950   0.87476656E-03
   0.58050   0.87201095E-03
   0.58150   0.86998346E-03
   0.58250   0.86864334E-03
   0.58350   0.86791522E-03
   0.58450   0.86766860E-03
   0.58550   0.86768513E-03
   0.58650   0.86760725E-03
   0.58750   0.86686003E-03
   0.58850   0.86453912E-03
   0.58950   0.85927051E-03
   0.59050   0.84909360E-03
   0.59150   0.83153479E-03
   0.59250   0.80423808E-03
   0.59350   0.76659315E-03
   0.59450   0.72205375E-03
   0.59550   0.67890732E-03
   0.59650   0.64690120E-03
   0.59750   0.63177012E-03
   0.59850   0.63323253E-03
   0.59950   0.64742425E-03
   0.60050   0.67005563E-03
   0.60150   0.69796591E-03
   0.60250   0.72931935E-03
   0.60350   0.76329353E-03
   0.60450   0.79973461E-03
   0.60550   0.83891832E-03
   0.60650   0.88141795E-03
   0.60750   0.92805160E-03
   0.60850   0.97988651E-03
   0.60950   0.10382907E-02
   0.61050   0.11050355E-02
   0.61150   0.11824663E-02
   0.61250   0.12737785E-02
   0.61350   0.13834689E-02
   0.61450   0.15180596E-02
   0.61550   0.16870791E-02
   0.61650   0.19024368E-02
   0.61750   0.21545789E-02
   0.61850   0.22818029E-02
   0.61950   0.22032715E-02
   0.62050   0.20852494E-02
   0.62150   0.19811199E-02
   0.62250   0.19032481E-02
   0.62350   0.18441021E-02
   0.62450   0.17897183E-02
   0.62550   0.17419604E-02
   0.62650   0.17086610E-02
   0.62750   0.16827652E-02
   0.62850   0.16348199E-02
   0.62950   0.15884178E-02
   0.63050   0.15503530E-02
   0.63150   0.15186769E-02
   0.63250   0.14923717E-02
   0.63350   0.14717126E-02
   0.63450   0.14593876E-02
   0.63550   0.14676306E-02
   0.63650   0.15396900E-02
   0.63750   0.14418417E-02
   0.63850   0.13996875E-02
   0.63950   0.13861677E-02
   0.64050   0.13810571E-02
   0.64150   0.13807189E-02
   0.64250   0.13842504E-02
   0.64350   0.13910820E-02
   0.64450   0.13988282E-02
   0.64550   0.14026107E-02
   0.64650   0.14115642E-02
   0.64750   0.14101921E-02
   0.64850   0.13997322E-02
   0.64950   0.13823387E-02
   0.65050   0.13549309E-02
   0.65150   0.13291438E-02
   0.65250   0.15420076E-02
   0.65350   0.31128018E-02
   0.65450   0.18641628E-01
   0.65550   0.25103442E-01
   0.65650   0.23771299E-01
   0.65750   0.22035439E-01
   0.65850   0.21327609E-01
   0.65950   0.20468643E-01
   0.66050   0.19818131E-01
   0.66150   0.19157691E-01
   0.66250   0.18255752E-01
   0.66350   0.17324930E-01
   0.66450   0.16459486E-01
   0.66550   0.15656533E-01
   0.66650   0.14884043E-01
   0.66750   0.14130857E-01
   0.66850   0.13420773E-01
   0.66950   0.12771937E-01
   0.67050   0.12176847E-01
   0.67150   0.11617298E-01
   0.67250   0.11081677E-01
   0.67350   0.10569924E-01
   0.67450   0.10088831E-01
   0.67550   0.96437028E-02
   0.67650   0.92324903E-02
   0.67750   0.88463202E-02
   0.67850   0.84754284E-02
   0.67950   0.81154183E-02
   0.68050   0.77689392E-02
   0.68150   0.74419910E-02
   0.68250   0.71381098E-02
   0.68350   0.68539325E-02
   0.68450   0.65764063E-02
   0.68550   0.62756301E-02
   0.68650   0.58700200E-02
   0.68750   0.52148583E-02
   0.68850   0.45473478E-02
   0.68950   0.40661627E-02
   0.69050   0.37211275E-02
   0.69150   0.34652499E-02
   0.69250   0.32713432E-02
   0.69350   0.31236452E-02
   0.69450   0.30128753E-02
   0.69550   0.29335944E-02
   0.69650   0.28827460E-02
   0.69750   0.28589044E-02
   0.69850   0.28620088E-02
   0.69950   0.28934693E-02
   0.70050   0.29566120E-02
   0.70150   0.30575127E-02
   0.70250   0.32062770E-02
   0.70350   0.34176360E-02
   0.70450   0.36951320E-02
   0.70550   0.38887798E-02
   0.70650   0.37699859E-02
   0.70750   0.35433664E-02
   0.70850   0.33198863E-02
   0.70950   0.31169236E-02
   0.71050   0.29348014E-02
   0.71150   0.27710686E-02
   0.71250   0.26231548E-02
   0.71350   0.24888634E-02
   0.71450   0.23664001E-02
   0.71550   0.22542987E-02
   0.71650   0.21513430E-02
   0.71750   0.20565044E-02
   0.71850   0.19688974E-02
   0.71950   0.18877571E-02
   0.72050   0.18124223E-02
   0.72150   0.17423298E-02
   0.72250   0.16770085E-02
   0.72350   0.16160746E-02
   0.72450   0.15592260E-02
   0.72550   0.15062366E-02
   0.72650   0.14569565E-02
   0.72750   0.14113206E-02
   0.72850   0.13693828E-02
   0.72950   0.13314104E-02
   0.73050   0.12981523E-02
   0.73150   0.12716457E-02
   0.73250   0.12553505E-02
   0.73350   0.12430988E-02
   0.73450   0.12284227E-02
   0.73550   0.12127142E-02
   0.73650   0.11972029E-02
   0.73750   0.11825070E-02
   0.73850   0.11689586E-02
   0.73950   0.11567543E-02
   0.74050   0.11460208E-02
   0.74150   0.11368452E-02
   0.74250   0.11292916E-02
   0.74350   0.11234105E-02
   0.74450   0.11192458E-02
   0.74550   0.11168402E-02
   0.74650   0.11162409E-02
   0.74750   0.11175036E-02
   0.74850   0.11206964E-02
   0.74950   0.11259029E-02
   0.75050   0.11332239E-02
   0.75150   0.11427802E-02
   0.75250   0.11547141E-02
   0.75350   0.11691932E-02
   0.75450   0.11864133E-02
   0.75550   0.12066059E-02
   0.75650   0.12300462E-02
   0.75750   0.12570638E-02
   0.75850   0.12880580E-02
   0.75950   0.13235157E-02
   0.76050   0.13640327E-02
   0.76150   0.14103418E-02
   0.76250   0.14633423E-02
   0.76350   0.15241355E-02
   0.76450   0.15940550E-02
   0.76550   0.16746793E-02
   0.76650   0.17678054E-02
   0.76750   0.18756550E-02
   0.76850   0.20090076E-02
   0.76950   0.30283255E-02
   0.77050   0.26955570E-02
   0.77150   0.28088968E-02
   0.77250   0.30717487E-02
   0.77350   0.34255122E-02
   0.77450   0.39003666E-02
   0.77550   0.45970622E-02
   0.77650   0.56851422E-02
   0.77750   0.71112355E-02
   0.77850   0.89330943E-02
   0.77950   0.16988011E-01
   0.78050   0.23463802E-01
   0.78150   0.36541831E-01
   0.78250   0.59082873E-01
   0.78350   0.93678907E-01
   0.78450   0.83112359E-01
   0.78550   0.63669518E-01
   0.78650   0.53421356E-01
   0.78750   0.42670887E-01
   0.78850   0.35094071E-01
   0.78950   0.30996146E-01
   0.79050   0.28535267E-01
   0.79150   0.26565859E-01
   0.79250   0.25313249E-01
   0.79350   0.24697579E-01
   0.79450   0.24280954E-01
   0.79550   0.24056133E-01
   0.79650   0.24086338E-01
   0.79750   0.24234788E-01
   0.79850   0.24380350E-01
   0.79950   0.24516372E-01
   0.80050   0.24648923E-01
   0.80150   0.24744539E-01
   0.80250   0.24772838E-01
   0.80350   0.24739794E-01
   0.80450   0.24670549E-01
   0.80550   0.24580542E-01
   0.80650   0.24467856E-01
   0.80750   0.24323646E-01
   0.80850   0.24144365E-01
   0.80950   0.23936504E-01
   0.81050   0.23713836E-01
   0.81150   0.23490593E-01
   0.81250   0.23274831E-01
   0.81350   0.23065882E-01
   0.81450   0.22857331E-01
   0.81550   0.22643406E-01
   0.81650   0.22424292E-01
   0.81750   0.22206608E-01
   0.81850   0.21999095E-01
   0.81950   0.21807140E-01
   0.82050   0.21630140E-01
   0.82150   0.21463158E-01
   0.82250   0.21301590E-01
   0.82350   0.21146424E-01
   0.82450   0.21009449E-01
   0.82550   0.20926522E-01
   0.82650   0.20946132E-01
   0.82750   0.21012075E-01
   0.82850   0.21087728E-01
   0.82950   0.21170262E-01
   0.83050   0.21257851E-01
   0.83150   0.21350019E-01
   0.83250   0.21450086E-01
   0.83350   0.21565259E-01
   0.83450   0.21704588E-01
   0.83550   0.21876257E-01
   0.83650   0.22085605E-01
   0.83750   0.22334658E-01
   0.83850   0.22623090E-01
   0.83950   0.22949740E-01
   0.84050   0.23311893E-01
   0.84150   0.23690984E-01
   0.84250   0.23959838E-01
   0.84350   0.23646200E-01
   0.84450   0.22885259E-01
   0.84550   0.22238009E-01
   0.84650   0.21768229E-01
   0.84750   0.21419678E-01
   0.84850   0.21061465E-01
   0.84950   0.20715032E-01
   0.85050   0.20444101E-01
   0.85150   0.20251296E-01
   0.85250   0.20130660E-01
   0.85350   0.20077894E-01
   0.85450   0.20091133E-01
   0.85550   0.20170690E-01
   0.85650   0.20318788E-01
   0.85750   0.20539379E-01
   0.85850   0.20838106E-01
   0.85950   0.21222400E-01
   0.86050   0.21701809E-01
   0.86150   0.22288568E-01
   0.86250   0.22998551E-01
   0.86350   0.23852719E-01
   0.86450   0.24879392E-01
   0.86550   0.26118014E-01
   0.86650   0.27626168E-01
   0.86750   0.29495686E-01
   0.86850   0.31904034E-01
   0.86950   0.35316288E-01
   0.87050   0.46479315E-01
   0.87150   0.41391615E-01
   0.87250   0.47309116E-01
   0.87350   0.58590345E-01
   0.87450   0.10760900E+00
   0.87550   0.10229533E+00
   0.87650   0.10006167E+00
   0.87750   0.11468448E+00
   0.87850   0.14564051E+00
   0.87950   0.19760078E+00
   0.88050   0.25429976E+00
   0.88150   0.28719318E+00
   0.88250   0.34430644E+00
   0.88350   0.42652419E+00
   0.88450   0.40577370E+00
   0.88550   0.38883868E+00
   0.88650   0.38979152E+00
   0.88750   0.36368173E+00
   0.88850   0.33765936E+00
   0.88950   0.32744256E+00
   0.89050   0.31558529E+00
   0.89150   0.29084781E+00
   0.89250   0.26762864E+00
   0.89350   0.24963143E+00
   0.89450   0.23241219E+00
   0.89550   0.21452220E+00
   0.89650   0.19935735E+00
   0.89750   0.18942471E+00
   0.89850   0.18423973E+00
   0.89950   0.18188377E+00
   0.90050   0.18069458E+00
   0.90150   0.17955048E+00
   0.90250   0.17773814E+00
   0.90350   0.17628689E+00
   0.90450   0.17529728E+00
   0.90550   0.17432965E+00
   0.90650   0.17299150E+00
   0.90750   0.17110729E+00
   0.90850   0.16889727E+00
   0.90950   0.16677195E+00
   0.91050   0.16495804E+00
   0.91150   0.16342118E+00
   0.91250   0.16208275E+00
   0.91350   0.16100410E+00
   0.91450   0.16034873E+00
   0.91550   0.16024119E+00
   0.91650   0.16070408E+00
   0.91750   0.16169178E+00
   0.91850   0.16314787E+00
   0.91950   0.16503656E+00
   0.92050   0.16734430E+00
   0.92150   0.17006750E+00
   0.92250   0.17320074E+00
   0.92350   0.17673163E+00
   0.92450   0.18064116E+00
   0.92550   0.18490748E+00
   0.92650   0.18951160E+00
   0.92750   0.19444387E+00
   0.92850   0.19971059E+00
   0.92950   0.20533791E+00
   0.93050   0.21137008E+00
   0.93150   0.21786061E+00
   0.93250   0.22485879E+00
   0.93350   0.23239596E+00
   0.93450   0.24047655E+00
   0.93550   0.24907999E+00
   0.93650   0.25818273E+00
   0.93750   0.26780608E+00
   0.93850   0.27807760E+00
   0.93950   0.28933576E+00
   0.94050   0.30346310E+00
   0.94150   0.31583184E+00
   0.94250   0.32934332E+00
   0.94350   0.34559810E+00
   0.94450   0.36279798E+00
   0.94550   0.37728482E+00
   0.94650   0.39013046E+00
   0.94750   0.40782842E+00
   0.94850   0.42938247E+00
   0.94950   0.45411140E+00
   0.95050   0.48152974E+00
   0.95150   0.51012045E+00
   0.95250   0.54130620E+00
   0.95350   0.57852942E+00
   0.95450   0.62214607E+00
   0.95550   0.67104238E+00
   0.95650   0.72246963E+00
   0.95750   0.77400494E+00
   0.95850   0.82749480E+00
   0.95950   0.88404733E+00
   0.96050   0.94117993E+00
   0.96150   0.99249226E+00
   0.96250   0.10336659E+01
   0.96350   0.10720814E+01
   0.96450   0.11211675E+01
   0.96550   0.11847564E+01
   0.96650   0.12519803E+01
   0.96750   0.13048429E+01
   0.96850   0.13369188E+01
   0.96950   0.13587414E+01
   0.97050   0.13817153E+01
   0.97150   0.14090363E+01
   0.97250   0.14386433E+01
   0.97350   0.14673842E+01
   0.97450   0.14908400E+01
   0.97550   0.14990337E+01
   0.97650   0.14854997E+01
   0.97750   0.14639904E+01
   0.97850   0.14506805E+01
   0.97950   0.14523450E+01
   0.98050   0.14675378E+01
   0.98150   0.14892255E+01
   0.98250   0.15122498E+01
   0.98350   0.15375656E+01
   0.98450   0.15621064E+01
   0.98550   0.15743779E+01
   0.98650   0.15732453E+01
   0.98750   0.15745817E+01
   0.98850   0.15870078E+01
   0.98950   0.15958946E+01
   0.99050   0.16020168E+01
   0.99150   0.16169088E+01
   0.99250   0.16493841E+01
   0.99350   0.17054453E+01
   0.99450   0.17769841E+01
   0.99550   0.18520885E+01
   0.99650   0.19225222E+01
   0.99750   0.19826349E+01
   0.99850   0.20287178E+01
   0.99950   0.20593154E+01
