# Transmission, k-averaged
# Date: 2021-05-13
#   E [eV]           T [G0]
   0.00050   0.68000376E+00
   0.00150   0.12660585E+00
   0.00250   0.86316606E-02
   0.00350   0.13019064E-01
   0.00450   0.24330875E-01
   0.00550   0.17417127E-01
   0.00650   0.14996783E-01
   0.00750   0.30043852E-01
   0.00850   0.26693577E-01
   0.00950   0.27838711E-01
   0.01050   0.40153496E-01
   0.01150   0.86547164E-02
   0.01250   0.47526002E-01
   0.01350   0.59808129E-02
   0.01450   0.20122904E-01
   0.01550   0.83138356E-02
   0.01650   0.65845624E-02
   0.01750   0.52857205E-01
   0.01850   0.55064191E-02
   0.01950   0.89516556E-02
   0.02050   0.44000071E-01
   0.02150   0.56289993E-02
   0.02250   0.66028647E-02
   0.02350   0.64883724E-01
   0.02450   0.85370950E-02
   0.02550   0.43680407E-02
   0.02650   0.96342172E-02
   0.02750   0.60789362E-01
   0.02850   0.60233958E-02
   0.02950   0.35885151E-02
   0.03050   0.68183071E-02
   0.03150   0.70624247E-01
   0.03250   0.73918505E-02
   0.03350   0.29850351E-02
   0.03450   0.33214784E-02
   0.03550   0.11525109E-01
   0.03650   0.32376990E-01
   0.03750   0.40679146E-02
   0.03850   0.22309250E-02
   0.03950   0.27663670E-02
   0.04050   0.96057514E-02
   0.04150   0.28709287E-01
   0.04250   0.36482748E-02
   0.04350   0.18756365E-02
   0.04450   0.20855556E-02
   0.04550   0.47315438E-02
   0.04650   0.92817573E-02
   0.04750   0.33865666E-02
   0.04850   0.16090522E-02
   0.04950   0.12096018E-02
   0.05050   0.12900068E-02
   0.05150   0.17858772E-02
   0.05250   0.24578732E-02
   0.05350   0.20864480E-02
   0.05450   0.13304612E-02
   0.05550   0.95902226E-03
   0.05650   0.85803511E-03
   0.05750   0.93726366E-03
   0.05850   0.11658298E-02
   0.05950   0.13866480E-02
   0.06050   0.12831817E-02
   0.06150   0.98671357E-03
   0.06250   0.77740266E-03
   0.06350   0.69389923E-03
   0.06450   0.71177975E-03
   0.06550   0.81318722E-03
   0.06650   0.95104909E-03
   0.06750   0.99969737E-03
   0.06850   0.89164171E-03
   0.06950   0.73870015E-03
   0.07050   0.63621800E-03
   0.07150   0.60104165E-03
   0.07250   0.62713877E-03
   0.07350   0.70370227E-03
   0.07450   0.79677510E-03
   0.07550   0.83470478E-03
   0.07650   0.77749271E-03
   0.07750   0.67821477E-03
   0.07850   0.60063193E-03
   0.07950   0.56776527E-03
   0.08050   0.58163836E-03
   0.08150   0.63821854E-03
   0.08250   0.72128739E-03
   0.08350   0.78728027E-03
   0.08450   0.78538689E-03
   0.08550   0.72086608E-03
   0.08650   0.64653938E-03
   0.08750   0.60117984E-03
   0.08850   0.59874536E-03
   0.08950   0.64360304E-03
   0.09050   0.73374202E-03
   0.09150   0.83566416E-03
   0.09250   0.84074028E-03
   0.09350   0.73505810E-03
   0.09450   0.62117580E-03
   0.09550   0.53988170E-03
   0.09650   0.49452210E-03
   0.09750   0.47838042E-03
   0.09850   0.48255437E-03
   0.09950   0.49553276E-03
   0.10050   0.50266605E-03
   0.10150   0.49166847E-03
   0.10250   0.46160634E-03
   0.10350   0.42284268E-03
   0.10450   0.38728456E-03
   0.10550   0.36170657E-03
   0.10650   0.34778376E-03
   0.10750   0.34407881E-03
   0.10850   0.34709630E-03
   0.10950   0.35160757E-03
   0.11050   0.35169802E-03
   0.11150   0.34338544E-03
   0.11250   0.32705738E-03
   0.11350   0.30687699E-03
   0.11450   0.28774646E-03
   0.11550   0.27297129E-03
   0.11650   0.26379304E-03
   0.11750   0.25982477E-03
   0.11850   0.25947267E-03
   0.11950   0.26023149E-03
   0.12050   0.25923064E-03
   0.12150   0.25429061E-03
   0.12250   0.24500559E-03
   0.12350   0.23287424E-03
   0.12450   0.22029701E-03
   0.12550   0.20937188E-03
   0.12650   0.20128884E-03
   0.12750   0.19629806E-03
   0.12850   0.19388298E-03
   0.12950   0.19293811E-03
   0.13050   0.19199800E-03
   0.13150   0.18964775E-03
   0.13250   0.18507754E-03
   0.13350   0.17845520E-03
   0.13450   0.17079395E-03
   0.13550   0.16341655E-03
   0.13650   0.15743017E-03
   0.13750   0.15347303E-03
   0.13850   0.15169157E-03
   0.13950   0.15180430E-03
   0.14050   0.15318213E-03
   0.14150   0.15497605E-03
   0.14250   0.15635246E-03
   0.14350   0.15680907E-03
   0.14450   0.15640519E-03
   0.14550   0.15573695E-03
   0.14650   0.15567946E-03
   0.14750   0.15708241E-03
   0.14850   0.16056591E-03
   0.14950   0.16642459E-03
   0.15050   0.17458212E-03
   0.15150   0.18456916E-03
   0.15250   0.19556825E-03
   0.15350   0.20659859E-03
   0.15450   0.21684280E-03
   0.15550   0.22597113E-03
   0.15650   0.23425790E-03
   0.15750   0.24242127E-03
   0.15850   0.25130893E-03
   0.15950   0.26159995E-03
   0.16050   0.27360633E-03
   0.16150   0.28717617E-03
   0.16250   0.30169170E-03
   0.16350   0.31618192E-03
   0.16450   0.32956726E-03
   0.16550   0.34098950E-03
   0.16650   0.35009478E-03
   0.16750   0.35712821E-03
   0.16850   0.36279883E-03
   0.16950   0.36799867E-03
   0.17050   0.37349699E-03
   0.17150   0.37966584E-03
   0.17250   0.38618295E-03
   0.17350   0.39147120E-03
   0.17450   0.39098517E-03
   0.17550   0.37278299E-03
   0.17650   0.33534251E-03
   0.17750   0.30182200E-03
   0.17850   0.27498743E-03
   0.17950   0.25232675E-03
   0.18050   0.23230664E-03
   0.18150   0.21410896E-03
   0.18250   0.19727806E-03
   0.18350   0.18153926E-03
   0.18450   0.16671434E-03
   0.18550   0.15268974E-03
   0.18650   0.13941267E-03
   0.18750   0.12689822E-03
   0.18850   0.11523303E-03
   0.18950   0.10456500E-03
   0.19050   0.95074800E-04
   0.19150   0.86934859E-04
   0.19250   0.80268517E-04
   0.19350   0.75122211E-04
   0.19450   0.71456503E-04
   0.19550   0.69153408E-04
   0.19650   0.68032481E-04
   0.19750   0.67869783E-04
   0.19850   0.68417154E-04
   0.19950   0.69422706E-04
   0.20050   0.70653303E-04
   0.20150   0.71916991E-04
   0.20250   0.73080322E-04
   0.20350   0.74074866E-04
   0.20450   0.74890588E-04
   0.20550   0.75558637E-04
   0.20650   0.76129618E-04
   0.20750   0.76653829E-04
   0.20850   0.77167628E-04
   0.20950   0.77687568E-04
   0.21050   0.78211691E-04
   0.21150   0.78726414E-04
   0.21250   0.79216603E-04
   0.21350   0.79676298E-04
   0.21450   0.80117563E-04
   0.21550   0.80576247E-04
   0.21650   0.81115664E-04
   0.21750   0.81806756E-04
   0.21850   0.82549202E-04
   0.21950   0.83297644E-04
   0.22050   0.84226049E-04
   0.22150   0.85481974E-04
   0.22250   0.87176457E-04
   0.22350   0.89393696E-04
   0.22450   0.92181675E-04
   0.22550   0.95515417E-04
   0.22650   0.99215831E-04
   0.22750   0.10281317E-03
   0.22850   0.10543519E-03
   0.22950   0.10617119E-03
   0.23050   0.10601281E-03
   0.23150   0.11086299E-03
   0.23250   0.12700667E-03
   0.23350   0.14689757E-03
   0.23450   0.15374154E-03
   0.23550   0.14001700E-03
   0.23650   0.11828401E-03
   0.23750   0.98741904E-04
   0.23850   0.83449188E-04
   0.23950   0.71942013E-04
   0.24050   0.63306681E-04
   0.24150   0.56741512E-04
   0.24250   0.51650284E-04
   0.24350   0.47612757E-04
   0.24450   0.44337092E-04
   0.24550   0.41620213E-04
   0.24650   0.39319457E-04
   0.24750   0.37333284E-04
   0.24850   0.35588389E-04
   0.24950   0.34031073E-04
   0.25050   0.32621407E-04
   0.25150   0.31329244E-04
   0.25250   0.30131434E-04
   0.25350   0.29009880E-04
   0.25450   0.27950158E-04
   0.25550   0.26940539E-04
   0.25650   0.25971302E-04
   0.25750   0.25034269E-04
   0.25850   0.24122488E-04
   0.25950   0.23230017E-04
   0.26050   0.22351793E-04
   0.26150   0.21483540E-04
   0.26250   0.20621708E-04
   0.26350   0.19763424E-04
   0.26450   0.18906461E-04
   0.26550   0.18049217E-04
   0.26650   0.17190716E-04
   0.26750   0.16330638E-04
   0.26850   0.15469401E-04
   0.26950   0.14608285E-04
   0.27050   0.13749611E-04
   0.27150   0.12896975E-04
   0.27250   0.12055494E-04
   0.27350   0.11232039E-04
   0.27450   0.10435388E-04
   0.27550   0.96762296E-05
   0.27650   0.89669584E-05
   0.27750   0.83211662E-05
   0.27850   0.77528539E-05
   0.27950   0.72753592E-05
   0.28050   0.69001303E-05
   0.28150   0.66354860E-05
   0.28250   0.64855694E-05
   0.28350   0.64496780E-05
   0.28450   0.65220997E-05
   0.28550   0.66924872E-05
   0.28650   0.69467142E-05
   0.28750   0.72680609E-05
   0.28850   0.76385340E-05
   0.28950   0.80401232E-05
   0.29050   0.84558278E-05
   0.29150   0.88703209E-05
   0.29250   0.92701539E-05
   0.29350   0.96433523E-05
   0.29450   0.99780518E-05
   0.29550   0.10259070E-04
   0.29650   0.10458544E-04
   0.29750   0.10504795E-04
   0.29850   0.10172513E-04
   0.29950   0.91970869E-05
   0.30050   0.81879034E-05
   0.30150   0.74216341E-05
   0.30250   0.68267841E-05
   0.30350   0.63442785E-05
   0.30450   0.59396370E-05
   0.30550   0.55919368E-05
   0.30650   0.52876399E-05
   0.30750   0.50174749E-05
   0.30850   0.47747913E-05
   0.30950   0.45546412E-05
   0.31050   0.43532359E-05
   0.31150   0.41676121E-05
   0.31250   0.39954084E-05
   0.31350   0.38347152E-05
   0.31450   0.36839638E-05
   0.31550   0.35418366E-05
   0.31650   0.34071988E-05
   0.31750   0.32790360E-05
   0.31850   0.31563977E-05
   0.31950   0.30383517E-05
   0.32050   0.29239397E-05
   0.32150   0.28121462E-05
   0.32250   0.27018809E-05
   0.32350   0.25919824E-05
   0.32450   0.24812607E-05
   0.32550   0.23685900E-05
   0.32650   0.22530830E-05
   0.32750   0.21343701E-05
   0.32850   0.20130176E-05
   0.32950   0.18910970E-05
   0.33050   0.17728728E-05
   0.33150   0.16654824E-05
   0.33250   0.15793191E-05
   0.33350   0.15276232E-05
   0.33450   0.15246524E-05
   0.33550   0.15819809E-05
   0.33650   0.17032644E-05
   0.33750   0.18792006E-05
   0.33850   0.20856539E-05
   0.33950   0.22875140E-05
   0.34050   0.24480451E-05
   0.34150   0.25397912E-05
   0.34250   0.25517259E-05
   0.34350   0.24897315E-05
   0.34450   0.23715588E-05
   0.34550   0.22198049E-05
   0.34650   0.20560853E-05
   0.34750   0.18977764E-05
   0.34850   0.17571211E-05
   0.34950   0.16418213E-05
   0.35050   0.15562584E-05
   0.35150   0.15027872E-05
   0.35250   0.14828404E-05
   0.35350   0.14977735E-05
   0.35450   0.15494678E-05
   0.35550   0.16407208E-05
   0.35650   0.17754160E-05
   0.35750   0.19583497E-05
   0.35850   0.21943647E-05
   0.35950   0.24858866E-05
   0.36050   0.28264694E-05
   0.36150   0.31818679E-05
   0.36250   0.34269663E-05
   0.36350   0.33931269E-05
   0.36450   0.32140852E-05
   0.36550   0.30045312E-05
   0.36650   0.28526699E-05
   0.36750   0.27722322E-05
   0.36850   0.26201978E-05
   0.36950   0.22939710E-05
   0.37050   0.18644577E-05
   0.37150   0.14486830E-05
   0.37250   0.11078015E-05
   0.37350   0.85096639E-06
   0.37450   0.66502912E-06
   0.37550   0.53260584E-06
   0.37650   0.43874550E-06
   0.37750   0.37227579E-06
   0.37850   0.32538463E-06
   0.37950   0.29285050E-06
   0.38050   0.27122104E-06
   0.38150   0.25648782E-06
   0.38250   0.23580112E-06
   0.38350   0.20625528E-06
   0.38450   0.17892219E-06
   0.38550   0.15616918E-06
   0.38650   0.13762028E-06
   0.38750   0.12260544E-06
   0.38850   0.11052703E-06
   0.38950   0.10088866E-06
   0.39050   0.93273258E-07
   0.39150   0.87319854E-07
   0.39250   0.82707295E-07
   0.39350   0.79144293E-07
   0.39450   0.76364422E-07
   0.39550   0.74124337E-07
   0.39650   0.72204159E-07
   0.39750   0.70408973E-07
   0.39850   0.68570927E-07
   0.39950   0.66551365E-07
   0.40050   0.64242698E-07
   0.40150   0.61569729E-07
   0.40250   0.58490347E-07
   0.40350   0.54995390E-07
   0.40450   0.51107747E-07
   0.40550   0.46880587E-07
   0.40650   0.42394788E-07
   0.40750   0.37755541E-07
   0.40850   0.33088114E-07
   0.40950   0.28532417E-07
   0.41050   0.24235316E-07
   0.41150   0.20336357E-07
   0.41250   0.16929180E-07
   0.41350   0.13922450E-07
   0.41450   0.10912365E-07
   0.41550   0.86658059E-08
   0.41650   0.77307245E-08
   0.41750   0.76971425E-08
   0.41850   0.82582172E-08
   0.41950   0.92284678E-08
   0.42050   0.10483643E-07
   0.42150   0.11931689E-07
   0.42250   0.13499241E-07
   0.42350   0.15125003E-07
   0.42450   0.16756335E-07
   0.42550   0.18347450E-07
   0.42650   0.19858483E-07
   0.42750   0.21255010E-07
   0.42850   0.22507830E-07
   0.42950   0.23592852E-07
   0.43050   0.24491067E-07
   0.43150   0.25188495E-07
   0.43250   0.25676139E-07
   0.43350   0.25949877E-07
   0.43450   0.26010316E-07
   0.43550   0.25862583E-07
   0.43650   0.25516057E-07
   0.43750   0.24984049E-07
   0.43850   0.24283421E-07
   0.43950   0.23434154E-07
   0.44050   0.22458876E-07
   0.44150   0.21382354E-07
   0.44250   0.20230960E-07
   0.44350   0.19032107E-07
   0.44450   0.17813694E-07
   0.44550   0.16603540E-07
   0.44650   0.15428830E-07
   0.44750   0.14315582E-07
   0.44850   0.13288153E-07
   0.44950   0.12368758E-07
   0.45050   0.11577069E-07
   0.45150   0.10929837E-07
   0.45250   0.10440590E-07
   0.45350   0.10119393E-07
   0.45450   0.99726734E-08
   0.45550   0.10003115E-07
   0.45650   0.10209633E-07
   0.45750   0.10587415E-07
   0.45850   0.11128032E-07
   0.45950   0.11819628E-07
   0.46050   0.12647165E-07
   0.46150   0.13592732E-07
   0.46250   0.14635914E-07
   0.46350   0.15754196E-07
   0.46450   0.16923428E-07
   0.46550   0.18118296E-07
   0.46650   0.19312843E-07
   0.46750   0.20480975E-07
   0.46850   0.21596998E-07
   0.46950   0.22636124E-07
   0.47050   0.23574980E-07
   0.47150   0.24392076E-07
   0.47250   0.25068248E-07
   0.47350   0.25587051E-07
   0.47450   0.25935105E-07
   0.47550   0.26102375E-07
   0.47650   0.26082393E-07
   0.47750   0.25872408E-07
   0.47850   0.25473458E-07
   0.47950   0.24890376E-07
   0.48050   0.24131710E-07
   0.48150   0.23209578E-07
   0.48250   0.22139433E-07
   0.48350   0.20939783E-07
   0.48450   0.19631827E-07
   0.48550   0.18239048E-07
   0.48650   0.16786757E-07
   0.48750   0.15301614E-07
   0.48850   0.13811114E-07
   0.48950   0.12343111E-07
   0.49050   0.10925354E-07
   0.49150   0.95851505E-08
   0.49250   0.83492004E-08
   0.49350   0.72438500E-08
   0.49450   0.62962564E-08
   0.49550   0.55378875E-08
   0.49650   0.50152007E-08
   0.49750   0.48247326E-08
   0.49850   0.51350471E-08
   0.49950   0.56971659E-08
   0.50050   0.61398495E-08
   0.50150   0.64447603E-08
   0.50250   0.66381554E-08
   0.50350   0.67391270E-08
   0.50450   0.67617330E-08
   0.50550   0.67176802E-08
   0.50650   0.66176926E-08
   0.50750   0.64721450E-08
   0.50850   0.62913306E-08
   0.50950   0.60855405E-08
   0.51050   0.58650538E-08
   0.51150   0.56400933E-08
   0.51250   0.54207905E-08
   0.51350   0.52172155E-08
   0.51450   0.50395417E-08
   0.51550   0.48985020E-08
   0.51650   0.48064677E-08
   0.51750   0.47800488E-08
   0.51850   0.48468620E-08
   0.51950   0.50652598E-08
   0.52050   0.55664477E-08
   0.52150   0.63140226E-08
   0.52250   0.68416046E-08
   0.52350   0.71125799E-08
   0.52450   0.72286177E-08
   0.52550   0.72653483E-08
   0.52650   0.72792781E-08
   0.52750   0.73145903E-08
   0.52850   0.74056863E-08
   0.52950   0.75777171E-08
   0.53050   0.78451636E-08
   0.53150   0.82036964E-08
   0.53250   0.85858192E-08
   0.53350   0.87565430E-08
   0.53450   0.87561771E-08
   0.53550   0.88088550E-08
   0.53650   0.89185868E-08
   0.53750   0.90619832E-08
   0.53850   0.92249808E-08
   0.53950   0.94013819E-08
   0.54050   0.95901163E-08
   0.54150   0.97934265E-08
   0.54250   0.10015682E-07
   0.54350   0.10262543E-07
   0.54450   0.10540344E-07
   0.54550   0.10855596E-07
   0.54650   0.11214601E-07
   0.54750   0.11623133E-07
   0.54850   0.12086202E-07
   0.54950   0.12607888E-07
   0.55050   0.13191237E-07
   0.55150   0.13838238E-07
   0.55250   0.14549861E-07
   0.55350   0.15326176E-07
   0.55450   0.16166535E-07
   0.55550   0.17069812E-07
   0.55650   0.18034724E-07
   0.55750   0.19060181E-07
   0.55850   0.20145704E-07
   0.55950   0.21291871E-07
   0.56050   0.22500785E-07
   0.56150   0.23776566E-07
   0.56250   0.25125837E-07
   0.56350   0.26558206E-07
   0.56450   0.28086708E-07
   0.56550   0.29728216E-07
   0.56650   0.31503802E-07
   0.56750   0.33439012E-07
   0.56850   0.35564053E-07
   0.56950   0.37913917E-07
   0.57050   0.40528374E-07
   0.57150   0.43451823E-07
   0.57250   0.46733081E-07
   0.57350   0.50424969E-07
   0.57450   0.54583829E-07
   0.57550   0.59268853E-07
   0.57650   0.64541304E-07
   0.57750   0.70463592E-07
   0.57850   0.77098250E-07
   0.57950   0.84506723E-07
   0.58050   0.92748138E-07
   0.58150   0.10187789E-06
   0.58250   0.11194616E-06
   0.58350   0.12299640E-06
   0.58450   0.13506367E-06
   0.58550   0.14817300E-06
   0.58650   0.16233764E-06
   0.58750   0.17755728E-06
   0.58850   0.19381635E-06
   0.58950   0.21108217E-06
   0.59050   0.22930324E-06
   0.59150   0.24840750E-06
   0.59250   0.26830071E-06
   0.59350   0.28886498E-06
   0.59450   0.30995753E-06
   0.59550   0.33140975E-06
   0.59650   0.35302702E-06
   0.59750   0.37458892E-06
   0.59850   0.39585117E-06
   0.59950   0.41654863E-06
   0.60050   0.43640114E-06
   0.60150   0.45512203E-06
   0.60250   0.47243128E-06
   0.60350   0.48807391E-06
   0.60450   0.50184588E-06
   0.60550   0.51362861E-06
   0.60650   0.52343512E-06
   0.60750   0.53146874E-06
   0.60850   0.53819650E-06
   0.60950   0.54443757E-06
   0.61050   0.55146586E-06
   0.61150   0.56112316E-06
   0.61250   0.57593826E-06
   0.61350   0.59925156E-06
   0.61450   0.63536771E-06
   0.61550   0.68985918E-06
   0.61650   0.77047287E-06
   0.61750   0.88919825E-06
   0.61850   0.10456353E-05
   0.61950   0.11811645E-05
   0.62050   0.12621696E-05
   0.62150   0.12848697E-05
   0.62250   0.12619133E-05
   0.62350   0.12361594E-05
   0.62450   0.12347107E-05
   0.62550   0.12611843E-05
   0.62650   0.13171554E-05
   0.62750   0.14034672E-05
   0.62850   0.15197739E-05
   0.62950   0.16644109E-05
   0.63050   0.18344936E-05
   0.63150   0.20261946E-05
   0.63250   0.22351937E-05
   0.63350   0.24573117E-05
   0.63450   0.26893424E-05
   0.63550   0.29300761E-05
   0.63650   0.31814852E-05
   0.63750   0.34499917E-05
   0.63850   0.37476830E-05
   0.63950   0.40932855E-05
   0.64050   0.45126576E-05
   0.64150   0.50385574E-05
   0.64250   0.57094753E-05
   0.64350   0.65674271E-05
   0.64450   0.76547640E-05
   0.64550   0.90102676E-05
   0.64650   0.10664993E-04
   0.64750   0.12638509E-04
   0.64850   0.14936131E-04
   0.64950   0.17547363E-04
   0.65050   0.20444026E-04
   0.65150   0.23567814E-04
   0.65250   0.26720390E-04
   0.65350   0.26760375E-04
   0.65450   0.35410823E-04
   0.65550   0.39381091E-04
   0.65650   0.43833541E-04
   0.65750   0.48371192E-04
   0.65850   0.52750114E-04
   0.65950   0.56527097E-04
   0.66050   0.59289698E-04
   0.66150   0.61380088E-04
   0.66250   0.64956563E-04
   0.66350   0.74301148E-04
   0.66450   0.95210264E-04
   0.66550   0.13673434E-03
   0.66650   0.21007391E-03
   0.66750   0.33990518E-03
   0.66850   0.61956322E-03
   0.66950   0.14429272E-02
   0.67050   0.30107030E-02
   0.67150   0.38053719E-02
   0.67250   0.49562058E-02
   0.67350   0.18201715E-02
   0.67450   0.15054628E-02
   0.67550   0.17168010E-02
   0.67650   0.21550353E-02
   0.67750   0.27659615E-02
   0.67850   0.33138080E-02
   0.67950   0.38603665E-02
   0.68050   0.47516008E-02
   0.68150   0.61904704E-02
   0.68250   0.81781503E-02
   0.68350   0.10945866E-01
   0.68450   0.19781137E-01
   0.68550   0.29191589E-01
   0.68650   0.66974439E-01
   0.68750   0.18877876E+00
   0.68850   0.14477386E+00
   0.68950   0.31690806E+00
   0.69050   0.13003681E+01
   0.69150   0.12652204E+01
   0.69250   0.56522286E+00
   0.69350   0.11977105E+01
   0.69450   0.97647828E+00
   0.69550   0.13903370E+01
   0.69650   0.17530766E+01
   0.69750   0.16207638E+01
   0.69850   0.12043316E+01
   0.69950   0.71123904E+00
   0.70050   0.51454246E+00
   0.70150   0.38001859E+00
   0.70250   0.11773717E+00
   0.70350   0.54936539E-01
   0.70450   0.37487272E-01
   0.70550   0.28679352E-01
   0.70650   0.18565966E-01
   0.70750   0.11521046E-01
   0.70850   0.84450357E-02
   0.70950   0.72318525E-02
   0.71050   0.64165602E-02
   0.71150   0.57755918E-02
   0.71250   0.52862433E-02
   0.71350   0.46731527E-02
   0.71450   0.38009414E-02
   0.71550   0.29099018E-02
   0.71650   0.22831154E-02
   0.71750   0.19395183E-02
   0.71850   0.17406807E-02
   0.71950   0.16114623E-02
   0.72050   0.15684959E-02
   0.72150   0.16234824E-02
   0.72250   0.17289799E-02
   0.72350   0.18043825E-02
   0.72450   0.17870937E-02
   0.72550   0.16604731E-02
   0.72650   0.14501275E-02
   0.72750   0.12033597E-02
   0.72850   0.96786610E-03
   0.72950   0.77809807E-03
   0.73050   0.65067061E-03
   0.73150   0.58647105E-03
   0.73250   0.57564105E-03
   0.73350   0.59962273E-03
   0.73450   0.63923554E-03
   0.73550   0.67942677E-03
   0.73650   0.70769171E-03
   0.73750   0.71517978E-03
   0.73850   0.69754373E-03
   0.73950   0.65503980E-03
   0.74050   0.59197238E-03
   0.74150   0.51564979E-03
   0.74250   0.43502229E-03
   0.74350   0.35917826E-03
   0.74450   0.29589440E-03
   0.74550   0.25046183E-03
   0.74650   0.22498966E-03
   0.74750   0.21830370E-03
   0.74850   0.22643156E-03
   0.74950   0.24354200E-03
   0.75050   0.26312855E-03
   0.75150   0.27920248E-03
   0.75250   0.28728205E-03
   0.75350   0.28501719E-03
   0.75450   0.27236564E-03
   0.75550   0.25132590E-03
   0.75650   0.22531739E-03
   0.75750   0.19836368E-03
   0.75850   0.17426055E-03
   0.75950   0.15589601E-03
   0.76050   0.14483878E-03
   0.76150   0.14124397E-03
   0.76250   0.14405567E-03
   0.76350   0.15142944E-03
   0.76450   0.16126245E-03
   0.76550   0.17170391E-03
   0.76650   0.18153011E-03
   0.76750   0.19030292E-03
   0.76850   0.19828793E-03
   0.76950   0.20617290E-03
   0.77050   0.21468155E-03
   0.77150   0.22420188E-03
   0.77250   0.23453611E-03
   0.77350   0.24483865E-03
   0.77450   0.25375627E-03
   0.77550   0.25973463E-03
   0.77650   0.26141619E-03
   0.77750   0.25802932E-03
   0.77850   0.24966273E-03
   0.77950   0.23733340E-03
   0.78050   0.22276763E-03
   0.78150   0.20765331E-03
   0.78250   0.19245596E-03
   0.78350   0.17986879E-03
   0.78450   0.17265721E-03
   0.78550   0.17118621E-03
   0.78650   0.17532318E-03
   0.78750   0.18493805E-03
   0.78850   0.20003966E-03
   0.78950   0.22079480E-03
   0.79050   0.24745223E-03
   0.79150   0.28019576E-03
   0.79250   0.31896294E-03
   0.79350   0.36327096E-03
   0.79450   0.41209091E-03
   0.79550   0.46380382E-03
   0.79650   0.51625900E-03
   0.79750   0.56693563E-03
   0.79850   0.61318610E-03
   0.79950   0.65252255E-03
   0.80050   0.68289944E-03
   0.80150   0.70294918E-03
   0.80250   0.71213616E-03
   0.80350   0.71081315E-03
   0.80450   0.70017664E-03
   0.80550   0.68212947E-03
   0.80650   0.65907103E-03
   0.80750   0.63363905E-03
   0.80850   0.60843385E-03
   0.80950   0.58575696E-03
   0.81050   0.56739472E-03
   0.81150   0.55447151E-03
   0.81250   0.54738845E-03
   0.81350   0.54584985E-03
   0.81450   0.54897089E-03
   0.81550   0.55544573E-03
   0.81650   0.56375260E-03
   0.81750   0.57236705E-03
   0.81850   0.57995814E-03
   0.81950   0.58554526E-03
   0.82050   0.58860076E-03
   0.82150   0.58909261E-03
   0.82250   0.58747322E-03
   0.82350   0.58465049E-03
   0.82450   0.58208924E-03
   0.82550   0.58268663E-03
   0.82650   0.59105625E-03
   0.82750   0.60640881E-03
   0.82850   0.62744028E-03
   0.82950   0.65405964E-03
   0.83050   0.68570278E-03
   0.83150   0.72117255E-03
   0.83250   0.75874763E-03
   0.83350   0.79636142E-03
   0.83450   0.83182618E-03
   0.83550   0.86308643E-03
   0.83650   0.88848214E-03
   0.83750   0.90699462E-03
   0.83850   0.91844361E-03
   0.83950   0.92360895E-03
   0.84050   0.92426827E-03
   0.84150   0.92319469E-03
   0.84250   0.92427497E-03
   0.84350   0.93198888E-03
   0.84450   0.94646204E-03
   0.84550   0.96577889E-03
   0.84650   0.98917098E-03
   0.84750   0.10155201E-02
   0.84850   0.10444189E-02
   0.84950   0.10781833E-02
   0.85050   0.11165892E-02
   0.85150   0.11593545E-02
   0.85250   0.12075300E-02
   0.85350   0.12634939E-02
   0.85450   0.13307901E-02
   0.85550   0.14138706E-02
   0.85650   0.15177479E-02
   0.85750   0.16475876E-02
   0.85850   0.18082717E-02
   0.85950   0.20039594E-02
   0.86050   0.22376692E-02
   0.86150   0.25109074E-02
   0.86250   0.28233712E-02
   0.86350   0.31727732E-02
   0.86450   0.35548268E-02
   0.86550   0.39634411E-02
   0.86650   0.43911380E-02
   0.86750   0.48296792E-02
   0.86850   0.52708336E-02
   0.86950   0.57071950E-02
   0.87050   0.61329342E-02
   0.87150   0.65444014E-02
   0.87250   0.69405260E-02
   0.87350   0.73230220E-02
   0.87450   0.76964567E-02
   0.87550   0.80682663E-02
   0.87650   0.84488075E-02
   0.87750   0.88515216E-02
   0.87850   0.92932824E-02
   0.87950   0.97949170E-02
   0.88050   0.10381887E-01
   0.88150   0.11084966E-01
   0.88250   0.11940703E-01
   0.88350   0.12991424E-01
   0.88450   0.14284819E-01
   0.88550   0.15873907E-01
   0.88650   0.17819600E-01
   0.88750   0.20200107E-01
   0.88850   0.23134347E-01
   0.88950   0.26833730E-01
   0.89050   0.31725116E-01
   0.89150   0.38834564E-01
   0.89250   0.51613059E-01
   0.89350   0.90681829E-01
   0.89450   0.24708125E+00
   0.89550   0.14665028E+00
   0.89650   0.35257077E+00
   0.89750   0.17772801E+00
   0.89850   0.14451709E+00
   0.89950   0.16675755E+00
   0.90050   0.20285307E+00
   0.90150   0.25677338E+00
   0.90250   0.40613961E+00
   0.90350   0.57473141E+00
   0.90450   0.79767662E+00
   0.90550   0.91003454E+00
   0.90650   0.78232956E+00
   0.90750   0.90878510E+00
   0.90850   0.13435484E+01
   0.90950   0.19851692E+01
   0.91050   0.24542527E+01
   0.91150   0.17535274E+01
   0.91250   0.14585881E+01
   0.91350   0.13298841E+01
   0.91450   0.11790358E+01
   0.91550   0.10243313E+01
   0.91650   0.10141231E+01
   0.91750   0.10226994E+01
   0.91850   0.10452809E+01
   0.91950   0.11385010E+01
   0.92050   0.12131122E+01
   0.92150   0.12682745E+01
   0.92250   0.13228415E+01
   0.92350   0.13668509E+01
   0.92450   0.13870790E+01
   0.92550   0.13896123E+01
   0.92650   0.14091276E+01
   0.92750   0.15098038E+01
   0.92850   0.17016467E+01
   0.92950   0.19307158E+01
   0.93050   0.23721707E+01
   0.93150   0.26595757E+01
   0.93250   0.23968155E+01
   0.93350   0.20784867E+01
   0.93450   0.19037424E+01
   0.93550   0.16002183E+01
   0.93650   0.14408532E+01
   0.93750   0.13795098E+01
   0.93850   0.13686900E+01
   0.93950   0.13807448E+01
   0.94050   0.14053236E+01
   0.94150   0.14503542E+01
   0.94250   0.15222466E+01
   0.94350   0.16207608E+01
   0.94450   0.17433466E+01
   0.94550   0.18793085E+01
   0.94650   0.19650903E+01
   0.94750   0.19146280E+01
   0.94850   0.17754638E+01
   0.94950   0.16202333E+01
   0.95050   0.14741929E+01
   0.95150   0.13506287E+01
   0.95250   0.12528723E+01
   0.95350   0.11760809E+01
   0.95450   0.11132340E+01
   0.95550   0.10599421E+01
   0.95650   0.10144511E+01
   0.95750   0.97583729E+00
   0.95850   0.94623125E+00
   0.95950   0.92691672E+00
   0.96050   0.91794801E+00
   0.96150   0.91799039E+00
   0.96250   0.92112434E+00
   0.96350   0.91077405E+00
   0.96450   0.86442626E+00
   0.96550   0.78840154E+00
   0.96650   0.71759540E+00
   0.96750   0.66798156E+00
   0.96850   0.63791198E+00
   0.96950   0.62244183E+00
   0.97050   0.61727196E+00
   0.97150   0.61903375E+00
   0.97250   0.62504739E+00
   0.97350   0.63311529E+00
   0.97450   0.64140064E+00
   0.97550   0.64834321E+00
   0.97650   0.65283215E+00
   0.97750   0.65450436E+00
   0.97850   0.65347439E+00
   0.97950   0.65030384E+00
   0.98050   0.64578354E+00
   0.98150   0.64057624E+00
   0.98250   0.63497734E+00
   0.98350   0.62888438E+00
   0.98450   0.62187743E+00
   0.98550   0.61332959E+00
   0.98650   0.60262001E+00
   0.98750   0.58962625E+00
   0.98850   0.57573688E+00
   0.98950   0.56324530E+00
   0.99050   0.55125946E+00
   0.99150   0.54213166E+00
   0.99250   0.54076147E+00
   0.99350   0.55115914E+00
   0.99450   0.57279611E+00
   0.99550   0.59858638E+00
   0.99650   0.61791795E+00
   0.99750   0.62547356E+00
   0.99850   0.62506914E+00
   0.99950   0.62613410E+00
