# Transmission, k-averaged
# Date: 2021-05-13
#   E [eV]           T [G0]
   0.00050   0.63192880E+00
   0.00150   0.31061807E+00
   0.00250   0.46387503E+00
   0.00350   0.39324480E+00
   0.00450   0.27306262E+00
   0.00550   0.28632638E+00
   0.00650   0.26853293E+00
   0.00750   0.24856642E+00
   0.00850   0.10024217E+00
   0.00950   0.63760959E-01
   0.01050   0.71207576E-01
   0.01150   0.13403495E-01
   0.01250   0.69434240E-01
   0.01350   0.85338447E-02
   0.01450   0.28544778E-01
   0.01550   0.11786794E-01
   0.01650   0.93633598E-02
   0.01750   0.75404257E-01
   0.01850   0.78594219E-02
   0.01950   0.12758275E-01
   0.02050   0.62484182E-01
   0.02150   0.79441527E-02
   0.02250   0.92452820E-02
   0.02350   0.90066627E-01
   0.02450   0.11738979E-01
   0.02550   0.59442269E-02
   0.02650   0.12969729E-01
   0.02750   0.80979593E-01
   0.02850   0.79444023E-02
   0.02950   0.46875933E-02
   0.03050   0.88221710E-02
   0.03150   0.90533875E-01
   0.03250   0.93930652E-02
   0.03350   0.37631341E-02
   0.03450   0.41574854E-02
   0.03550   0.14332525E-01
   0.03650   0.40021945E-01
   0.03750   0.50003612E-02
   0.03850   0.27282999E-02
   0.03950   0.33677428E-02
   0.04050   0.11647590E-01
   0.04150   0.34692291E-01
   0.04250   0.43953448E-02
   0.04350   0.22537184E-02
   0.04450   0.25000218E-02
   0.04550   0.56598638E-02
   0.04650   0.11082332E-01
   0.04750   0.40372945E-02
   0.04850   0.19158551E-02
   0.04950   0.14388498E-02
   0.05050   0.15333685E-02
   0.05150   0.21216429E-02
   0.05250   0.29188972E-02
   0.05350   0.24772356E-02
   0.05450   0.15794772E-02
   0.05550   0.11384939E-02
   0.05650   0.10186558E-02
   0.05750   0.11128297E-02
   0.05850   0.13844285E-02
   0.05950   0.16470170E-02
   0.06050   0.15245774E-02
   0.06150   0.11727819E-02
   0.06250   0.92442136E-03
   0.06350   0.82555128E-03
   0.06450   0.84729271E-03
   0.06550   0.96855982E-03
   0.06650   0.11334161E-02
   0.06750   0.11920847E-02
   0.06850   0.10638632E-02
   0.06950   0.88192208E-03
   0.07050   0.76006283E-03
   0.07150   0.71853498E-03
   0.07250   0.75028400E-03
   0.07350   0.84253319E-03
   0.07450   0.95473783E-03
   0.07550   0.10010197E-02
   0.07650   0.93320216E-03
   0.07750   0.81474765E-03
   0.07850   0.72218204E-03
   0.07950   0.68327424E-03
   0.08050   0.70060359E-03
   0.08150   0.76946028E-03
   0.08250   0.87041443E-03
   0.08350   0.95093483E-03
   0.08450   0.94953529E-03
   0.08550   0.87235071E-03
   0.08650   0.78314979E-03
   0.08750   0.72890916E-03
   0.08850   0.72667020E-03
   0.08950   0.78189222E-03
   0.09050   0.89230284E-03
   0.09150   0.10172904E-02
   0.09250   0.10245208E-02
   0.09350   0.89665415E-03
   0.09450   0.75850222E-03
   0.09550   0.65989082E-03
   0.09650   0.60503645E-03
   0.09750   0.58584556E-03
   0.09850   0.59151126E-03
   0.09950   0.60798205E-03
   0.10050   0.61729853E-03
   0.10150   0.60433900E-03
   0.10250   0.56789187E-03
   0.10350   0.52065193E-03
   0.10450   0.47726277E-03
   0.10550   0.44608818E-03
   0.10650   0.42922341E-03
   0.10750   0.42492329E-03
   0.10850   0.42889148E-03
   0.10950   0.43467642E-03
   0.11050   0.43496545E-03
   0.11150   0.42482669E-03
   0.11250   0.40473291E-03
   0.11350   0.37983374E-03
   0.11450   0.35619910E-03
   0.11550   0.33792437E-03
   0.11650   0.32654812E-03
   0.11750   0.32158976E-03
   0.11850   0.32107200E-03
   0.11950   0.32188999E-03
   0.12050   0.32049182E-03
   0.12150   0.31418944E-03
   0.12250   0.30249640E-03
   0.12350   0.28728208E-03
   0.12450   0.27152378E-03
   0.12550   0.25781596E-03
   0.12650   0.24762447E-03
   0.12750   0.24125238E-03
   0.12850   0.23805826E-03
   0.12950   0.23667945E-03
   0.13050   0.23531630E-03
   0.13150   0.23223693E-03
   0.13250   0.22645552E-03
   0.13350   0.21818498E-03
   0.13450   0.20867109E-03
   0.13550   0.19953487E-03
   0.13650   0.19213169E-03
   0.13750   0.18724427E-03
   0.13850   0.18505790E-03
   0.13950   0.18524038E-03
   0.14050   0.18704028E-03
   0.14150   0.18944054E-03
   0.14250   0.19144158E-03
   0.14350   0.19244333E-03
   0.14450   0.19252775E-03
   0.14550   0.19243608E-03
   0.14650   0.19326426E-03
   0.14750   0.19609946E-03
   0.14850   0.20177411E-03
   0.14950   0.21074679E-03
   0.15050   0.22303792E-03
   0.15150   0.23818601E-03
   0.15250   0.25527962E-03
   0.15350   0.27316631E-03
   0.15450   0.29085932E-03
   0.15550   0.30797240E-03
   0.15650   0.32491551E-03
   0.15750   0.34273387E-03
   0.15850   0.36271967E-03
   0.15950   0.38600451E-03
   0.16050   0.41324313E-03
   0.16150   0.44439925E-03
   0.16250   0.47864128E-03
   0.16350   0.51440811E-03
   0.16450   0.54971786E-03
   0.16550   0.58269355E-03
   0.16650   0.61211071E-03
   0.16750   0.63769636E-03
   0.16850   0.66003337E-03
   0.16950   0.68014784E-03
   0.17050   0.69897086E-03
   0.17150   0.71679807E-03
   0.17250   0.73268689E-03
   0.17350   0.74338418E-03
   0.17450   0.74016023E-03
   0.17550   0.70080091E-03
   0.17650   0.62377186E-03
   0.17750   0.55368012E-03
   0.17850   0.49606554E-03
   0.17950   0.44652875E-03
   0.18050   0.40249061E-03
   0.18150   0.36265672E-03
   0.18250   0.32634399E-03
   0.18350   0.29314269E-03
   0.18450   0.26276649E-03
   0.18550   0.23499958E-03
   0.18650   0.20969084E-03
   0.18750   0.18676376E-03
   0.18850   0.16622018E-03
   0.18950   0.14812502E-03
   0.19050   0.13256994E-03
   0.19150   0.11962592E-03
   0.19250   0.10930132E-03
   0.19350   0.10151914E-03
   0.19450   0.96116615E-04
   0.19550   0.92860631E-04
   0.19650   0.91468472E-04
   0.19750   0.91626825E-04
   0.19850   0.93008064E-04
   0.19950   0.95286843E-04
   0.20050   0.98160337E-04
   0.20150   0.10137173E-03
   0.20250   0.10473134E-03
   0.20350   0.10812777E-03
   0.20450   0.11152425E-03
   0.20550   0.11494083E-03
   0.20650   0.11842844E-03
   0.20750   0.12204253E-03
   0.20850   0.12582265E-03
   0.20950   0.12978129E-03
   0.21050   0.13390325E-03
   0.21150   0.13815524E-03
   0.21250   0.14250417E-03
   0.21350   0.14694261E-03
   0.21450   0.15152291E-03
   0.21550   0.15641612E-03
   0.21650   0.16206912E-03
   0.21750   0.16949870E-03
   0.21850   0.17835447E-03
   0.21950   0.18654726E-03
   0.22050   0.19396904E-03
   0.22150   0.20079076E-03
   0.22250   0.20698135E-03
   0.22350   0.21231316E-03
   0.22450   0.21635016E-03
   0.22550   0.21841147E-03
   0.22650   0.21754135E-03
   0.22750   0.21258346E-03
   0.22850   0.20265031E-03
   0.22950   0.18867817E-03
   0.23050   0.17694525E-03
   0.23150   0.18293134E-03
   0.23250   0.22648634E-03
   0.23350   0.31292703E-03
   0.23450   0.42010233E-03
   0.23550   0.50347246E-03
   0.23650   0.55433146E-03
   0.23750   0.58685808E-03
   0.23850   0.60896931E-03
   0.23950   0.62508270E-03
   0.24050   0.63775491E-03
   0.24150   0.64845535E-03
   0.24250   0.65801473E-03
   0.24350   0.66688535E-03
   0.24450   0.67529263E-03
   0.24550   0.68332377E-03
   0.24650   0.69098116E-03
   0.24750   0.69821556E-03
   0.24850   0.70494780E-03
   0.24950   0.71108207E-03
   0.25050   0.71651518E-03
   0.25150   0.72114135E-03
   0.25250   0.72485459E-03
   0.25350   0.72754949E-03
   0.25450   0.72912034E-03
   0.25550   0.72946021E-03
   0.25650   0.72845980E-03
   0.25750   0.72600710E-03
   0.25850   0.72198809E-03
   0.25950   0.71628828E-03
   0.26050   0.70879556E-03
   0.26150   0.69940434E-03
   0.26250   0.68802055E-03
   0.26350   0.67456753E-03
   0.26450   0.65899274E-03
   0.26550   0.64127508E-03
   0.26650   0.62143250E-03
   0.26750   0.59953023E-03
   0.26850   0.57568902E-03
   0.26950   0.55009313E-03
   0.27050   0.52299799E-03
   0.27150   0.49473625E-03
   0.27250   0.46572150E-03
   0.27350   0.43644849E-03
   0.27450   0.40748843E-03
   0.27550   0.37947789E-03
   0.27650   0.35310059E-03
   0.27750   0.32906199E-03
   0.27850   0.30805686E-03
   0.27950   0.29073263E-03
   0.28050   0.27765121E-03
   0.28150   0.26925365E-03
   0.28250   0.26583171E-03
   0.28350   0.26751019E-03
   0.28450   0.27424193E-03
   0.28550   0.28581591E-03
   0.28650   0.30187666E-03
   0.28750   0.32195152E-03
   0.28850   0.34548205E-03
   0.28950   0.37185466E-03
   0.29050   0.40042683E-03
   0.29150   0.43054426E-03
   0.29250   0.46154423E-03
   0.29350   0.49273478E-03
   0.29450   0.52332645E-03
   0.29550   0.55224774E-03
   0.29650   0.57760999E-03
   0.29750   0.59486832E-03
   0.29850   0.59017312E-03
   0.29950   0.54611039E-03
   0.30050   0.49694604E-03
   0.30150   0.45973688E-03
   0.30250   0.43095881E-03
   0.30350   0.40749687E-03
   0.30450   0.38754538E-03
   0.30550   0.37003143E-03
   0.30650   0.35428084E-03
   0.30750   0.33984776E-03
   0.30850   0.32642376E-03
   0.30950   0.31378702E-03
   0.31050   0.30177226E-03
   0.31150   0.29025215E-03
   0.31250   0.27912535E-03
   0.31350   0.26830877E-03
   0.31450   0.25773232E-03
   0.31550   0.24733518E-03
   0.31650   0.23706352E-03
   0.31750   0.22686888E-03
   0.31850   0.21670730E-03
   0.31950   0.20653896E-03
   0.32050   0.19632874E-03
   0.32150   0.18604708E-03
   0.32250   0.17567210E-03
   0.32350   0.16519256E-03
   0.32450   0.15461238E-03
   0.32550   0.14395703E-03
   0.32650   0.13328218E-03
   0.32750   0.12268531E-03
   0.32850   0.11232015E-03
   0.32950   0.10241416E-03
   0.33050   0.93287155E-04
   0.33150   0.85367821E-04
   0.33250   0.79201447E-04
   0.33350   0.75438373E-04
   0.33450   0.74790165E-04
   0.33550   0.77941862E-04
   0.33650   0.85419699E-04
   0.33750   0.97435601E-04
   0.33850   0.11375626E-03
   0.33950   0.13365761E-03
   0.34050   0.15600513E-03
   0.34150   0.17944779E-03
   0.34250   0.20265860E-03
   0.34350   0.22453796E-03
   0.34450   0.24432407E-03
   0.34550   0.26160429E-03
   0.34650   0.27625758E-03
   0.34750   0.28836727E-03
   0.34850   0.29813548E-03
   0.34950   0.30581385E-03
   0.35050   0.31165520E-03
   0.35150   0.31588232E-03
   0.35250   0.31866916E-03
   0.35350   0.32012910E-03
   0.35450   0.32030567E-03
   0.35550   0.31916262E-03
   0.35650   0.31657060E-03
   0.35750   0.31228899E-03
   0.35850   0.30594409E-03
   0.35950   0.29701131E-03
   0.36050   0.28483066E-03
   0.36150   0.26875859E-03
   0.36250   0.24890970E-03
   0.36350   0.22739635E-03
   0.36450   0.20635517E-03
   0.36550   0.19117138E-03
   0.36650   0.19177701E-03
   0.36750   0.21594307E-03
   0.36850   0.26046523E-03
   0.36950   0.31316851E-03
   0.37050   0.36353237E-03
   0.37150   0.40750814E-03
   0.37250   0.44546681E-03
   0.37350   0.47935176E-03
   0.37450   0.51127234E-03
   0.37550   0.54312748E-03
   0.37650   0.57665515E-03
   0.37750   0.61363151E-03
   0.37850   0.65614976E-03
   0.37950   0.70697383E-03
   0.38050   0.76956203E-03
   0.38150   0.84216945E-03
   0.38250   0.88381628E-03
   0.38350   0.87255833E-03
   0.38450   0.84624620E-03
   0.38550   0.81834401E-03
   0.38650   0.79161389E-03
   0.38750   0.76658721E-03
   0.38850   0.74326550E-03
   0.38950   0.72151801E-03
   0.39050   0.70119009E-03
   0.39150   0.68213482E-03
   0.39250   0.66422077E-03
   0.39350   0.64733258E-03
   0.39450   0.63136982E-03
   0.39550   0.61624416E-03
   0.39650   0.60187781E-03
   0.39750   0.58820116E-03
   0.39850   0.57515141E-03
   0.39950   0.56267047E-03
   0.40050   0.55070402E-03
   0.40150   0.53919927E-03
   0.40250   0.52810356E-03
   0.40350   0.51736162E-03
   0.40450   0.50691259E-03
   0.40550   0.49668475E-03
   0.40650   0.48658779E-03
   0.40750   0.47649865E-03
   0.40850   0.46623562E-03
   0.40950   0.45550495E-03
   0.41050   0.44378045E-03
   0.41150   0.42999067E-03
   0.41250   0.41155683E-03
   0.41350   0.38107493E-03
   0.41450   0.32514430E-03
   0.41550   0.26548319E-03
   0.41650   0.22254590E-03
   0.41750   0.19148081E-03
   0.41850   0.16781270E-03
   0.41950   0.14904924E-03
   0.42050   0.13373879E-03
   0.42150   0.12097361E-03
   0.42250   0.11015132E-03
   0.42350   0.10085301E-03
   0.42450   0.92776325E-04
   0.42550   0.85696367E-04
   0.42650   0.79441685E-04
   0.42750   0.73878866E-04
   0.42850   0.68902285E-04
   0.42950   0.64427033E-04
   0.43050   0.60384002E-04
   0.43150   0.56716268E-04
   0.43250   0.53376501E-04
   0.43350   0.50324983E-04
   0.43450   0.47528119E-04
   0.43550   0.44957294E-04
   0.43650   0.42587959E-04
   0.43750   0.40398954E-04
   0.43850   0.38371913E-04
   0.43950   0.36490830E-04
   0.44050   0.34741694E-04
   0.44150   0.33112181E-04
   0.44250   0.31591404E-04
   0.44350   0.30169718E-04
   0.44450   0.28838545E-04
   0.44550   0.27590233E-04
   0.44650   0.26417929E-04
   0.44750   0.25315483E-04
   0.44850   0.24277362E-04
   0.44950   0.23298569E-04
   0.45050   0.22374588E-04
   0.45150   0.21501321E-04
   0.45250   0.20675041E-04
   0.45350   0.19892361E-04
   0.45450   0.19150180E-04
   0.45550   0.18445671E-04
   0.45650   0.17776238E-04
   0.45750   0.17139499E-04
   0.45850   0.16533266E-04
   0.45950   0.15955520E-04
   0.46050   0.15404399E-04
   0.46150   0.14878182E-04
   0.46250   0.14375275E-04
   0.46350   0.13894200E-04
   0.46450   0.13433584E-04
   0.46550   0.12992149E-04
   0.46650   0.12568704E-04
   0.46750   0.12162137E-04
   0.46850   0.11771409E-04
   0.46950   0.11395547E-04
   0.47050   0.11033635E-04
   0.47150   0.10684817E-04
   0.47250   0.10348286E-04
   0.47350   0.10023278E-04
   0.47450   0.97090742E-05
   0.47550   0.94049929E-05
   0.47650   0.91103875E-05
   0.47750   0.88246452E-05
   0.47850   0.85471802E-05
   0.47950   0.82774359E-05
   0.48050   0.80148784E-05
   0.48150   0.77589975E-05
   0.48250   0.75093035E-05
   0.48350   0.72653229E-05
   0.48450   0.70266028E-05
   0.48550   0.67927040E-05
   0.48650   0.65632016E-05
   0.48750   0.63376856E-05
   0.48850   0.61157580E-05
   0.48950   0.58970345E-05
   0.49050   0.56811432E-05
   0.49150   0.54677271E-05
   0.49250   0.52564483E-05
   0.49350   0.50469935E-05
   0.49450   0.48390966E-05
   0.49550   0.46325922E-05
   0.49650   0.44276135E-05
   0.49750   0.42254528E-05
   0.49850   0.40307973E-05
   0.49950   0.38423254E-05
   0.50050   0.36521956E-05
   0.50150   0.34597822E-05
   0.50250   0.32659898E-05
   0.50350   0.30717422E-05
   0.50450   0.28780462E-05
   0.50550   0.26861580E-05
   0.50650   0.24977660E-05
   0.50750   0.23152204E-05
   0.50850   0.21418473E-05
   0.50950   0.19824054E-05
   0.51050   0.18437767E-05
   0.51150   0.17360458E-05
   0.51250   0.16742456E-05
   0.51350   0.16812887E-05
   0.51450   0.17931247E-05
   0.51550   0.20683412E-05
   0.51650   0.26073508E-05
   0.51750   0.35943553E-05
   0.51850   0.54000011E-05
   0.51950   0.88591378E-05
   0.52050   0.15766433E-04
   0.52150   0.25718422E-04
   0.52250   0.33959273E-04
   0.52350   0.40567476E-04
   0.52450   0.46409568E-04
   0.52550   0.51903480E-04
   0.52650   0.57271936E-04
   0.52750   0.62657200E-04
   0.52850   0.68161244E-04
   0.52950   0.73847885E-04
   0.53050   0.79685757E-04
   0.53150   0.85263091E-04
   0.53250   0.88330904E-04
   0.53350   0.81917329E-04
   0.53450   0.69514339E-04
   0.53550   0.59398524E-04
   0.53650   0.51790001E-04
   0.53750   0.45909575E-04
   0.53850   0.41219140E-04
   0.53950   0.37379399E-04
   0.54050   0.34170262E-04
   0.54150   0.31443102E-04
   0.54250   0.29093766E-04
   0.54350   0.27046919E-04
   0.54450   0.25246576E-04
   0.54550   0.23650184E-04
   0.54650   0.22224747E-04
   0.54750   0.20944251E-04
   0.54850   0.19787878E-04
   0.54950   0.18738752E-04
   0.55050   0.17783032E-04
   0.55150   0.16909249E-04
   0.55250   0.16107819E-04
   0.55350   0.15370659E-04
   0.55450   0.14690902E-04
   0.55550   0.14062684E-04
   0.55650   0.13480954E-04
   0.55750   0.12941347E-04
   0.55850   0.12440069E-04
   0.55950   0.11973807E-04
   0.56050   0.11539659E-04
   0.56150   0.11135070E-04
   0.56250   0.10757792E-04
   0.56350   0.10405833E-04
   0.56450   0.10077430E-04
   0.56550   0.97710190E-05
   0.56650   0.94852139E-05
   0.56750   0.92187820E-05
   0.56850   0.89706336E-05
   0.56950   0.87398012E-05
   0.57050   0.85254360E-05
   0.57150   0.83267914E-05
   0.57250   0.81432190E-05
   0.57350   0.79741631E-05
   0.57450   0.78191515E-05
   0.57550   0.76777951E-05
   0.57650   0.75497869E-05
   0.57750   0.74348964E-05
   0.57850   0.73329734E-05
   0.57950   0.72439457E-05
   0.58050   0.71678242E-05
   0.58150   0.71047039E-05
   0.58250   0.70547699E-05
   0.58350   0.70183023E-05
   0.58450   0.69956859E-05
   0.58550   0.69874177E-05
   0.58650   0.69941193E-05
   0.58750   0.70165515E-05
   0.58850   0.70556307E-05
   0.58950   0.71124487E-05
   0.59050   0.71882987E-05
   0.59150   0.72847033E-05
   0.59250   0.74034492E-05
   0.59350   0.75466296E-05
   0.59450   0.77166960E-05
   0.59550   0.79165184E-05
   0.59650   0.81494600E-05
   0.59750   0.84194680E-05
   0.59850   0.87311882E-05
   0.59950   0.90901040E-05
   0.60050   0.95027062E-05
   0.60150   0.99767194E-05
   0.60250   0.10521381E-04
   0.60350   0.11147802E-04
   0.60450   0.11869447E-04
   0.60550   0.12702773E-04
   0.60650   0.13668105E-04
   0.60750   0.14790848E-04
   0.60850   0.16103253E-04
   0.60950   0.17647035E-04
   0.61050   0.19477413E-04
   0.61150   0.21669672E-04
   0.61250   0.24330335E-04
   0.61350   0.27617392E-04
   0.61450   0.31779382E-04
   0.61550   0.37235219E-04
   0.61650   0.44725541E-04
   0.61750   0.55189859E-04
   0.61850   0.65366097E-04
   0.61950   0.68746929E-04
   0.62050   0.68401037E-04
   0.62150   0.67075198E-04
   0.62250   0.67025852E-04
   0.62350   0.68914262E-04
   0.62450   0.70634545E-04
   0.62550   0.71808434E-04
   0.62650   0.72568815E-04
   0.62750   0.73030096E-04
   0.62850   0.73267081E-04
   0.62950   0.73328527E-04
   0.63050   0.73246971E-04
   0.63150   0.73044575E-04
   0.63250   0.72736555E-04
   0.63350   0.72333343E-04
   0.63450   0.71842012E-04
   0.63550   0.71267299E-04
   0.63650   0.70612317E-04
   0.63750   0.69879206E-04
   0.63850   0.69069683E-04
   0.63950   0.68185502E-04
   0.64050   0.67228939E-04
   0.64150   0.66203174E-04
   0.64250   0.65112719E-04
   0.64350   0.63963686E-04
   0.64450   0.62764098E-04
   0.64550   0.61524071E-04
   0.64650   0.60255952E-04
   0.64750   0.58974347E-04
   0.64850   0.57696001E-04
   0.64950   0.56439134E-04
   0.65050   0.55220909E-04
   0.65150   0.54046894E-04
   0.65250   0.52855408E-04
   0.65350   0.51117611E-04
   0.65450   0.56194549E-04
   0.65550   0.53980715E-04
   0.65650   0.54521301E-04
   0.65750   0.56453162E-04
   0.65850   0.60239527E-04
   0.65950   0.66834888E-04
   0.66050   0.77784876E-04
   0.66150   0.95471223E-04
   0.66250   0.12343514E-03
   0.66350   0.16679475E-03
   0.66450   0.23225370E-03
   0.66550   0.31655928E-03
   0.66650   0.37958904E-03
   0.66750   0.43346608E-03
   0.66850   0.48980513E-03
   0.66950   0.53677644E-03
   0.67050   0.57458878E-03
   0.67150   0.60678268E-03
   0.67250   0.65661647E-03
   0.67350   0.68902993E-03
   0.67450   0.79251494E-03
   0.67550   0.91848220E-03
   0.67650   0.10784835E-02
   0.67750   0.12919581E-02
   0.67850   0.15591996E-02
   0.67950   0.19280658E-02
   0.68050   0.24862830E-02
   0.68150   0.33649986E-02
   0.68250   0.47900723E-02
   0.68350   0.71626045E-02
   0.68450   0.11788364E-01
   0.68550   0.16896985E-01
   0.68650   0.35253171E-01
   0.68750   0.67194290E-01
   0.68850   0.83082236E-01
   0.68950   0.22437264E+00
   0.69050   0.11678509E+01
   0.69150   0.12759870E+01
   0.69250   0.83121657E+00
   0.69350   0.10717975E+01
   0.69450   0.70788080E+00
   0.69550   0.87043065E+00
   0.69650   0.17406900E+01
   0.69750   0.13240243E+01
   0.69850   0.77948433E+00
   0.69950   0.37374300E+00
   0.70050   0.21027726E+00
   0.70150   0.15460646E+00
   0.70250   0.10157045E+00
   0.70350   0.67430787E-01
   0.70450   0.48255093E-01
   0.70550   0.37036739E-01
   0.70650   0.29021803E-01
   0.70750   0.22584101E-01
   0.70850   0.17497659E-01
   0.70950   0.13571816E-01
   0.71050   0.10581358E-01
   0.71150   0.83112540E-02
   0.71250   0.65761670E-02
   0.71350   0.52482337E-02
   0.71450   0.42451015E-02
   0.71550   0.34988706E-02
   0.71650   0.29487775E-02
   0.71750   0.25470250E-02
   0.71850   0.22585925E-02
   0.71950   0.20569100E-02
   0.72050   0.19209344E-02
   0.72150   0.18338984E-02
   0.72250   0.17826206E-02
   0.72350   0.17569426E-02
   0.72450   0.17492060E-02
   0.72550   0.17537568E-02
   0.72650   0.17664895E-02
   0.72750   0.17844508E-02
   0.72850   0.18055516E-02
   0.72950   0.18284708E-02
   0.73050   0.18529566E-02
   0.73150   0.18813671E-02
   0.73250   0.19220640E-02
   0.73350   0.19714769E-02
   0.73450   0.20142768E-02
   0.73550   0.20487234E-02
   0.73650   0.20755380E-02
   0.73750   0.20952180E-02
   0.73850   0.21081476E-02
   0.73950   0.21147365E-02
   0.74050   0.21154513E-02
   0.74150   0.21107853E-02
   0.74250   0.21012120E-02
   0.74350   0.20871551E-02
   0.74450   0.20689834E-02
   0.74550   0.20470298E-02
   0.74650   0.20216177E-02
   0.74750   0.19930841E-02
   0.74850   0.19617891E-02
   0.74950   0.19281128E-02
   0.75050   0.18924426E-02
   0.75150   0.18551575E-02
   0.75250   0.18166157E-02
   0.75350   0.17771469E-02
   0.75450   0.17370532E-02
   0.75550   0.16966137E-02
   0.75650   0.16560932E-02
   0.75750   0.16157480E-02
   0.75850   0.15758309E-02
   0.75950   0.15365876E-02
   0.76050   0.14982518E-02
   0.76150   0.14610355E-02
   0.76250   0.14251199E-02
   0.76350   0.13906503E-02
   0.76450   0.13577341E-02
   0.76550   0.13264439E-02
   0.76650   0.12968228E-02
   0.76750   0.12688898E-02
   0.76850   0.12426404E-02
   0.76950   0.12180435E-02
   0.77050   0.11950313E-02
   0.77150   0.11734875E-02
   0.77250   0.11532325E-02
   0.77350   0.11340104E-02
   0.77450   0.11154752E-02
   0.77550   0.10971725E-02
   0.77650   0.10785025E-02
   0.77750   0.10586415E-02
   0.77850   0.10363676E-02
   0.77950   0.10096685E-02
   0.78050   0.97483059E-03
   0.78150   0.92543731E-03
   0.78250   0.86810044E-03
   0.78350   0.83414465E-03
   0.78450   0.81943907E-03
   0.78550   0.81473845E-03
   0.78650   0.81612280E-03
   0.78750   0.82178466E-03
   0.78850   0.83074364E-03
   0.78950   0.84239629E-03
   0.79050   0.85634220E-03
   0.79150   0.87230996E-03
   0.79250   0.89011964E-03
   0.79350   0.90965780E-03
   0.79450   0.93085523E-03
   0.79550   0.95366477E-03
   0.79650   0.97804179E-03
   0.79750   0.10039294E-02
   0.79850   0.10312507E-02
   0.79950   0.10599088E-02
   0.80050   0.10897940E-02
   0.80150   0.11207947E-02
   0.80250   0.11528078E-02
   0.80350   0.11857484E-02
   0.80450   0.12195529E-02
   0.80550   0.12541799E-02
   0.80650   0.12896040E-02
   0.80750   0.13258111E-02
   0.80850   0.13627921E-02
   0.80950   0.14005392E-02
   0.81050   0.14390473E-02
   0.81150   0.14783179E-02
   0.81250   0.15183656E-02
   0.81350   0.15592235E-02
   0.81450   0.16009469E-02
   0.81550   0.16436115E-02
   0.81650   0.16873074E-02
   0.81750   0.17321298E-02
   0.81850   0.17781700E-02
   0.81950   0.18255134E-02
   0.82050   0.18742555E-02
   0.82150   0.19245509E-02
   0.82250   0.19767385E-02
   0.82350   0.20316679E-02
   0.82450   0.20917377E-02
   0.82550   0.21643429E-02
   0.82650   0.22572605E-02
   0.82750   0.23553458E-02
   0.82850   0.24530133E-02
   0.82950   0.25523612E-02
   0.83050   0.26553555E-02
   0.83150   0.27635230E-02
   0.83250   0.28781304E-02
   0.83350   0.30002890E-02
   0.83450   0.31310224E-02
   0.83550   0.32713374E-02
   0.83650   0.34223255E-02
   0.83750   0.35853130E-02
   0.83850   0.37620522E-02
   0.83950   0.39548702E-02
   0.84050   0.41662850E-02
   0.84150   0.43951208E-02
   0.84250   0.46085198E-02
   0.84350   0.46475884E-02
   0.84450   0.45037242E-02
   0.84550   0.43593519E-02
   0.84650   0.42560105E-02
   0.84750   0.41986755E-02
   0.84850   0.41614259E-02
   0.84950   0.41097575E-02
   0.85050   0.40543391E-02
   0.85150   0.40034358E-02
   0.85250   0.39602625E-02
   0.85350   0.39264369E-02
   0.85450   0.39030910E-02
   0.85550   0.38911921E-02
   0.85650   0.38916098E-02
   0.85750   0.39051042E-02
   0.85850   0.39322954E-02
   0.85950   0.39736363E-02
   0.86050   0.40294062E-02
   0.86150   0.40997206E-02
   0.86250   0.41845632E-02
   0.86350   0.42838412E-02
   0.86450   0.43974593E-02
   0.86550   0.45254100E-02
   0.86650   0.46678735E-02
   0.86750   0.48253126E-02
   0.86850   0.49985517E-02
   0.86950   0.51888307E-02
   0.87050   0.53978218E-02
   0.87150   0.56276224E-02
   0.87250   0.58807237E-02
   0.87350   0.61599896E-02
   0.87450   0.64686602E-02
   0.87550   0.68104230E-02
   0.87650   0.71895742E-02
   0.87750   0.76113096E-02
   0.87850   0.80821617E-02
   0.87950   0.86105959E-02
   0.88050   0.92077609E-02
   0.88150   0.98883789E-02
   0.88250   0.10671788E-01
   0.88350   0.11583222E-01
   0.88450   0.12655552E-01
   0.88550   0.13931842E-01
   0.88650   0.15469230E-01
   0.88750   0.17344808E-01
   0.88850   0.19664776E-01
   0.88950   0.22580197E-01
   0.89050   0.26319936E-01
   0.89150   0.31280201E-01
   0.89250   0.38396038E-01
   0.89350   0.52470919E-01
   0.89450   0.11694846E+00
   0.89550   0.99695057E-01
   0.89650   0.21726567E+00
   0.89750   0.12981156E+00
   0.89850   0.12227559E+00
   0.89950   0.15137580E+00
   0.90050   0.18858214E+00
   0.90150   0.24035940E+00
   0.90250   0.36867788E+00
   0.90350   0.44006258E+00
   0.90450   0.50386184E+00
   0.90550   0.68282646E+00
   0.90650   0.90620100E+00
   0.90750   0.10431250E+01
   0.90850   0.15547652E+01
   0.90950   0.23240473E+01
   0.91050   0.27750127E+01
   0.91150   0.18763304E+01
   0.91250   0.15885624E+01
   0.91350   0.14396441E+01
   0.91450   0.12660111E+01
   0.91550   0.10242569E+01
   0.91650   0.93074441E+00
   0.91750   0.90074670E+00
   0.91850   0.96166015E+00
   0.91950   0.10692022E+01
   0.92050   0.11396832E+01
   0.92150   0.11505117E+01
   0.92250   0.11331363E+01
   0.92350   0.11230084E+01
   0.92450   0.11371950E+01
   0.92550   0.11858015E+01
   0.92650   0.12469816E+01
   0.92750   0.13447592E+01
   0.92850   0.15485064E+01
   0.92950   0.18501544E+01
   0.93050   0.24101501E+01
   0.93150   0.28134594E+01
   0.93250   0.26497271E+01
   0.93350   0.23731015E+01
   0.93450   0.21168933E+01
   0.93550   0.18359526E+01
   0.93650   0.17015865E+01
   0.93750   0.15427122E+01
   0.93850   0.14046378E+01
   0.93950   0.13002939E+01
   0.94050   0.12328444E+01
   0.94150   0.12035702E+01
   0.94250   0.12059659E+01
   0.94350   0.12309545E+01
   0.94450   0.12799108E+01
   0.94550   0.13542428E+01
   0.94650   0.14015279E+01
   0.94750   0.13379996E+01
   0.94850   0.12009543E+01
   0.94950   0.10630723E+01
   0.95050   0.94558156E+00
   0.95150   0.84983701E+00
   0.95250   0.77445149E+00
   0.95350   0.71668077E+00
   0.95450   0.67180425E+00
   0.95550   0.63353419E+00
   0.95650   0.59669864E+00
   0.95750   0.56002277E+00
   0.95850   0.52597713E+00
   0.95950   0.49720043E+00
   0.96050   0.47626847E+00
   0.96150   0.46695647E+00
   0.96250   0.47426286E+00
   0.96350   0.49969304E+00
   0.96450   0.53045255E+00
   0.96550   0.54186356E+00
   0.96650   0.53058302E+00
   0.96750   0.51039660E+00
   0.96850   0.48998034E+00
   0.96950   0.47209576E+00
   0.97050   0.45718840E+00
   0.97150   0.44503284E+00
   0.97250   0.43525434E+00
   0.97350   0.42744738E+00
   0.97450   0.42112285E+00
   0.97550   0.41567647E+00
   0.97650   0.41148719E+00
   0.97750   0.40907720E+00
   0.97850   0.40814808E+00
   0.97950   0.40846458E+00
   0.98050   0.40993738E+00
   0.98150   0.41256875E+00
   0.98250   0.41638359E+00
   0.98350   0.42137310E+00
   0.98450   0.42746761E+00
   0.98550   0.43454376E+00
   0.98650   0.44249162E+00
   0.98750   0.45143855E+00
   0.98850   0.46239272E+00
   0.98950   0.47665069E+00
   0.99050   0.49193785E+00
   0.99150   0.50764096E+00
   0.99250   0.52461421E+00
   0.99350   0.54355520E+00
   0.99450   0.56331027E+00
   0.99550   0.58182162E+00
   0.99650   0.59922540E+00
   0.99750   0.61637151E+00
   0.99850   0.63463366E+00
   0.99950   0.65558666E+00
