# Transmission, k-averaged
# Date: 2021-05-13
#   E [eV]           T [G0]
   0.00050   0.21513132E-01
   0.00150   0.23810165E+00
   0.00250   0.24101416E-01
   0.00350   0.18032057E-01
   0.00450   0.30561611E-01
   0.00550   0.77430760E-02
   0.00650   0.28211309E-01
   0.00750   0.50919048E-01
   0.00850   0.51524561E-01
   0.00950   0.93365841E-01
   0.01050   0.72259180E-01
   0.01150   0.10687725E+00
   0.01250   0.84188029E-01
   0.01350   0.13683207E+00
   0.01450   0.96856639E-01
   0.01550   0.13854820E+00
   0.01650   0.14209260E+00
   0.01750   0.12173636E+00
   0.01850   0.17624585E+00
   0.01950   0.16914926E+00
   0.02050   0.15242223E+00
   0.02150   0.20847489E+00
   0.02250   0.22902831E+00
   0.02350   0.20107675E+00
   0.02450   0.24578302E+00
   0.02550   0.31712481E+00
   0.02650   0.28392473E+00
   0.02750   0.28060377E+00
   0.02850   0.34883720E+00
   0.02950   0.34573483E+00
   0.03050   0.27657163E+00
   0.03150   0.26066369E+00
   0.03250   0.26101521E+00
   0.03350   0.21523581E+00
   0.03450   0.16782816E+00
   0.03550   0.14707729E+00
   0.03650   0.13621125E+00
   0.03750   0.11890591E+00
   0.03850   0.10060921E+00
   0.03950   0.90118229E-01
   0.04050   0.86304121E-01
   0.04150   0.83327390E-01
   0.04250   0.77364139E-01
   0.04350   0.69581576E-01
   0.04450   0.60128976E-01
   0.04550   0.45946546E-01
   0.04650   0.34025643E-01
   0.04750   0.26519706E-01
   0.04850   0.21654464E-01
   0.04950   0.18446056E-01
   0.05050   0.16323591E-01
   0.05150   0.14884671E-01
   0.05250   0.13838848E-01
   0.05350   0.13002335E-01
   0.05450   0.12291838E-01
   0.05550   0.11694264E-01
   0.05650   0.11221003E-01
   0.05750   0.10872442E-01
   0.05850   0.10625533E-01
   0.05950   0.10440257E-01
   0.06050   0.10275668E-01
   0.06150   0.10105834E-01
   0.06250   0.99267680E-02
   0.06350   0.97508729E-02
   0.06450   0.95941424E-02
   0.06550   0.94648674E-02
   0.06650   0.93591725E-02
   0.06750   0.92636691E-02
   0.06850   0.91625284E-02
   0.06950   0.90451101E-02
   0.07050   0.89102900E-02
   0.07150   0.87656099E-02
   0.07250   0.86224396E-02
   0.07350   0.84903594E-02
   0.07450   0.83735855E-02
   0.07550   0.82704816E-02
   0.07650   0.81756637E-02
   0.07750   0.80833836E-02
   0.07850   0.79906620E-02
   0.07950   0.78988792E-02
   0.08050   0.78133736E-02
   0.08150   0.77415118E-02
   0.08250   0.76903719E-02
   0.08350   0.76650307E-02
   0.08450   0.76680109E-02
   0.08550   0.76998933E-02
   0.08650   0.77607436E-02
   0.08750   0.78517478E-02
   0.08850   0.79760076E-02
   0.08950   0.81357276E-02
   0.09050   0.83128102E-02
   0.09150   0.83545391E-02
   0.09250   0.77358107E-02
   0.09350   0.66944887E-02
   0.09450   0.57979007E-02
   0.09550   0.50812685E-02
   0.09650   0.45000310E-02
   0.09750   0.40188888E-02
   0.09850   0.36139924E-02
   0.09950   0.32690801E-02
   0.10050   0.29725879E-02
   0.10150   0.27158638E-02
   0.10250   0.24921261E-02
   0.10350   0.22958834E-02
   0.10450   0.21226227E-02
   0.10550   0.19686394E-02
   0.10650   0.18309271E-02
   0.10750   0.17070854E-02
   0.10850   0.15952213E-02
   0.10950   0.14938433E-02
   0.11050   0.14017568E-02
   0.11150   0.13179702E-02
   0.11250   0.12416226E-02
   0.11350   0.11719359E-02
   0.11450   0.11081916E-02
   0.11550   0.10497251E-02
   0.11650   0.99593273E-03
   0.11750   0.94628026E-03
   0.11850   0.90030959E-03
   0.11950   0.85763971E-03
   0.12050   0.81795937E-03
   0.12150   0.78101450E-03
   0.12250   0.74659270E-03
   0.12350   0.71450736E-03
   0.12450   0.68458583E-03
   0.12550   0.65666134E-03
   0.12650   0.63057081E-03
   0.12750   0.60615572E-03
   0.12850   0.58326661E-03
   0.12950   0.56176743E-03
   0.13050   0.54153922E-03
   0.13150   0.52248186E-03
   0.13250   0.50451298E-03
   0.13350   0.48756518E-03
   0.13450   0.47158168E-03
   0.13550   0.45651154E-03
   0.13650   0.44230590E-03
   0.13750   0.42891534E-03
   0.13850   0.41628897E-03
   0.13950   0.40437514E-03
   0.14050   0.39312307E-03
   0.14150   0.38248501E-03
   0.14250   0.37241826E-03
   0.14350   0.36288638E-03
   0.14450   0.35385945E-03
   0.14550   0.34531331E-03
   0.14650   0.33722818E-03
   0.14750   0.32958644E-03
   0.14850   0.32237105E-03
   0.14950   0.31556410E-03
   0.15050   0.30914595E-03
   0.15150   0.30309547E-03
   0.15250   0.29739071E-03
   0.15350   0.29201005E-03
   0.15450   0.28693350E-03
   0.15550   0.28214371E-03
   0.15650   0.27762639E-03
   0.15750   0.27337033E-03
   0.15850   0.26936649E-03
   0.15950   0.26560688E-03
   0.16050   0.26208299E-03
   0.16150   0.25878422E-03
   0.16250   0.25569671E-03
   0.16350   0.25280230E-03
   0.16450   0.25007784E-03
   0.16550   0.24749429E-03
   0.16650   0.24501540E-03
   0.16750   0.24259445E-03
   0.16850   0.24016744E-03
   0.16950   0.23763913E-03
   0.17050   0.23485397E-03
   0.17150   0.23153197E-03
   0.17250   0.22711161E-03
   0.17350   0.22030086E-03
   0.17450   0.20757044E-03
   0.17550   0.17990494E-03
   0.17650   0.14130915E-03
   0.17750   0.11289040E-03
   0.17850   0.93723036E-04
   0.17950   0.80017351E-04
   0.18050   0.69701149E-04
   0.18150   0.61640050E-04
   0.18250   0.55163917E-04
   0.18350   0.49849252E-04
   0.18450   0.45413697E-04
   0.18550   0.41660765E-04
   0.18650   0.38448881E-04
   0.18750   0.35673063E-04
   0.18850   0.33253604E-04
   0.18950   0.31128748E-04
   0.19050   0.29249866E-04
   0.19150   0.27578168E-04
   0.19250   0.26082373E-04
   0.19350   0.24737068E-04
   0.19450   0.23521476E-04
   0.19550   0.22418511E-04
   0.19650   0.21414044E-04
   0.19750   0.20496285E-04
   0.19850   0.19655288E-04
   0.19950   0.18882512E-04
   0.20050   0.18170465E-04
   0.20150   0.17512393E-04
   0.20250   0.16902044E-04
   0.20350   0.16333483E-04
   0.20450   0.15800957E-04
   0.20550   0.15298825E-04
   0.20650   0.14821525E-04
   0.20750   0.14363565E-04
   0.20850   0.13919537E-04
   0.20950   0.13484108E-04
   0.21050   0.13051994E-04
   0.21150   0.12617880E-04
   0.21250   0.12176361E-04
   0.21350   0.11722130E-04
   0.21450   0.11251426E-04
   0.21550   0.10769407E-04
   0.21650   0.10329315E-04
   0.21750   0.10216763E-04
   0.21850   0.10745868E-04
   0.21950   0.11411952E-04
   0.22050   0.12017276E-04
   0.22150   0.12578424E-04
   0.22250   0.13125273E-04
   0.22350   0.13682507E-04
   0.22450   0.14271124E-04
   0.22550   0.14910909E-04
   0.22650   0.15622556E-04
   0.22750   0.16429774E-04
   0.22850   0.17361841E-04
   0.22950   0.18457207E-04
   0.23050   0.19768942E-04
   0.23150   0.21372547E-04
   0.23250   0.23370918E-04
   0.23350   0.25831567E-04
   0.23450   0.28078288E-04
   0.23550   0.27718155E-04
   0.23650   0.25784337E-04
   0.23750   0.23803383E-04
   0.23850   0.22035965E-04
   0.23950   0.20487416E-04
   0.24050   0.19127643E-04
   0.24150   0.17926170E-04
   0.24250   0.16857452E-04
   0.24350   0.15900840E-04
   0.24450   0.15039692E-04
   0.24550   0.14260525E-04
   0.24650   0.13552343E-04
   0.24750   0.12906130E-04
   0.24850   0.12314449E-04
   0.24950   0.11771141E-04
   0.25050   0.11271070E-04
   0.25150   0.10809925E-04
   0.25250   0.10384043E-04
   0.25350   0.99902718E-05
   0.25450   0.96258473E-05
   0.25550   0.92882983E-05
   0.25650   0.89753757E-05
   0.25750   0.86849877E-05
   0.25850   0.84151652E-05
   0.25950   0.81640319E-05
   0.26050   0.79297897E-05
   0.26150   0.77107143E-05
   0.26250   0.75051535E-05
   0.26350   0.73115375E-05
   0.26450   0.71283825E-05
   0.26550   0.69543003E-05
   0.26650   0.67880064E-05
   0.26750   0.66283228E-05
   0.26850   0.64741798E-05
   0.26950   0.63246139E-05
   0.27050   0.61787623E-05
   0.27150   0.60358566E-05
   0.27250   0.58952160E-05
   0.27350   0.57562397E-05
   0.27450   0.56184035E-05
   0.27550   0.54812590E-05
   0.27650   0.53444383E-05
   0.27750   0.52076603E-05
   0.27850   0.50707413E-05
   0.27950   0.49336054E-05
   0.28050   0.47962963E-05
   0.28150   0.46589794E-05
   0.28250   0.45219440E-05
   0.28350   0.43855935E-05
   0.28450   0.42504239E-05
   0.28550   0.41170006E-05
   0.28650   0.39859169E-05
   0.28750   0.38577537E-05
   0.28850   0.37330253E-05
   0.28950   0.36121214E-05
   0.29050   0.34952334E-05
   0.29150   0.33822525E-05
   0.29250   0.32726093E-05
   0.29350   0.31649772E-05
   0.29450   0.30566493E-05
   0.29550   0.29420573E-05
   0.29650   0.28086702E-05
   0.29750   0.26235896E-05
   0.29850   0.22918050E-05
   0.29950   0.17516865E-05
   0.30050   0.13056789E-05
   0.30150   0.10156083E-05
   0.30250   0.81836845E-06
   0.30350   0.67653860E-06
   0.30450   0.57019645E-06
   0.30550   0.48794766E-06
   0.30650   0.42279842E-06
   0.30750   0.37020683E-06
   0.30850   0.32708937E-06
   0.30950   0.29127690E-06
   0.31050   0.26119866E-06
   0.31150   0.23568930E-06
   0.31250   0.21386622E-06
   0.31350   0.19504908E-06
   0.31450   0.17870521E-06
   0.31550   0.16441186E-06
   0.31650   0.15182950E-06
   0.31750   0.14068263E-06
   0.31850   0.13074582E-06
   0.31950   0.12183322E-06
   0.32050   0.11379095E-06
   0.32150   0.10649099E-06
   0.32250   0.99826771E-07
   0.32350   0.93709488E-07
   0.32450   0.88065214E-07
   0.32550   0.82832486E-07
   0.32650   0.77960301E-07
   0.32750   0.73406298E-07
   0.32850   0.69135261E-07
   0.32950   0.65117682E-07
   0.33050   0.61328578E-07
   0.33150   0.57746451E-07
   0.33250   0.54352434E-07
   0.33350   0.51129650E-07
   0.33450   0.48062759E-07
   0.33550   0.45137764E-07
   0.33650   0.42341973E-07
   0.33750   0.39664176E-07
   0.33850   0.37094892E-07
   0.33950   0.34626694E-07
   0.34050   0.32254487E-07
   0.34150   0.29975670E-07
   0.34250   0.27790135E-07
   0.34350   0.25700025E-07
   0.34450   0.23709283E-07
   0.34550   0.21822984E-07
   0.34650   0.20046565E-07
   0.34750   0.18385002E-07
   0.34850   0.16842076E-07
   0.34950   0.15419822E-07
   0.35050   0.14118243E-07
   0.35150   0.12935325E-07
   0.35250   0.11867379E-07
   0.35350   0.10909653E-07
   0.35450   0.10057152E-07
   0.35550   0.93056318E-08
   0.35650   0.86527780E-08
   0.35750   0.80998079E-08
   0.35850   0.76542896E-08
   0.35950   0.73367796E-08
   0.36050   0.72006481E-08
   0.36150   0.74062578E-08
   0.36250   0.84715452E-08
   0.36350   0.10672612E-07
   0.36450   0.12852935E-07
   0.36550   0.14740023E-07
   0.36650   0.16471674E-07
   0.36750   0.18174847E-07
   0.36850   0.19950916E-07
   0.36950   0.21889521E-07
   0.37050   0.24079734E-07
   0.37150   0.26619261E-07
   0.37250   0.29623754E-07
   0.37350   0.33238198E-07
   0.37450   0.37652740E-07
   0.37550   0.43126736E-07
   0.37650   0.50027815E-07
   0.37750   0.58899165E-07
   0.37850   0.70581791E-07
   0.37950   0.86440032E-07
   0.38050   0.10867392E-06
   0.38150   0.13894584E-06
   0.38250   0.16431390E-06
   0.38350   0.17187590E-06
   0.38450   0.17303545E-06
   0.38550   0.17271809E-06
   0.38650   0.17195038E-06
   0.38750   0.17086390E-06
   0.38850   0.16935840E-06
   0.38950   0.16727402E-06
   0.39050   0.16445094E-06
   0.39150   0.16075820E-06
   0.39250   0.15611165E-06
   0.39350   0.15048522E-06
   0.39450   0.14391610E-06
   0.39550   0.13650288E-06
   0.39650   0.12839685E-06
   0.39750   0.11978783E-06
   0.39850   0.11088640E-06
   0.39950   0.10190554E-06
   0.40050   0.93044072E-07
   0.40150   0.84473861E-07
   0.40250   0.76331823E-07
   0.40350   0.68716652E-07
   0.40450   0.61689605E-07
   0.40550   0.55278083E-07
   0.40650   0.49480775E-07
   0.40750   0.44272873E-07
   0.40850   0.39610075E-07
   0.40950   0.35429402E-07
   0.41050   0.31642902E-07
   0.41150   0.28112693E-07
   0.41250   0.24566164E-07
   0.41350   0.20312099E-07
   0.41450   0.14380536E-07
   0.41550   0.92540171E-08
   0.41650   0.62483210E-08
   0.41750   0.44548103E-08
   0.41850   0.33130763E-08
   0.41950   0.25491034E-08
   0.42050   0.20189315E-08
   0.42150   0.16409369E-08
   0.42250   0.13659880E-08
   0.42350   0.11631293E-08
   0.42450   0.10121661E-08
   0.42550   0.89957336E-09
   0.42650   0.81611801E-09
   0.42750   0.75541146E-09
   0.42850   0.71298201E-09
   0.42950   0.68563122E-09
   0.43050   0.67091904E-09
   0.43150   0.66665046E-09
   0.43250   0.67024669E-09
   0.43350   0.67791806E-09
   0.43450   0.68371542E-09
   0.43550   0.67897865E-09
   0.43650   0.65338984E-09
   0.43750   0.59891897E-09
   0.43850   0.51567878E-09
   0.43950   0.41470261E-09
   0.44050   0.31317721E-09
   0.44150   0.22548415E-09
   0.44250   0.15798467E-09
   0.44350   0.11004037E-09
   0.44450   0.77683061E-10
   0.44550   0.56483051E-10
   0.44650   0.42815460E-10
   0.44750   0.34092104E-10
   0.44850   0.28586430E-10
   0.44950   0.25184027E-10
   0.45050   0.23175146E-10
   0.45150   0.22108773E-10
   0.45250   0.21697266E-10
   0.45350   0.21756119E-10
   0.45450   0.22166498E-10
   0.45550   0.22852067E-10
   0.45650   0.23764619E-10
   0.45750   0.24874823E-10
   0.45850   0.26165150E-10
   0.45950   0.27621537E-10
   0.46050   0.29218742E-10
   0.46150   0.30895411E-10
   0.46250   0.32535533E-10
   0.46350   0.33945811E-10
   0.46450   0.34186348E-10
   0.46550   0.31254135E-10
   0.46650   0.26760351E-10
   0.46750   0.23819492E-10
   0.46850   0.22649582E-10
   0.46950   0.22460154E-10
   0.47050   0.22698416E-10
   0.47150   0.23094263E-10
   0.47250   0.23530485E-10
   0.47350   0.23961435E-10
   0.47450   0.24373920E-10
   0.47550   0.24769190E-10
   0.47650   0.25154451E-10
   0.47750   0.25538710E-10
   0.47850   0.25930638E-10
   0.47950   0.26337503E-10
   0.48050   0.26764698E-10
   0.48150   0.27215652E-10
   0.48250   0.27692040E-10
   0.48350   0.28194190E-10
   0.48450   0.28721666E-10
   0.48550   0.29273927E-10
   0.48650   0.29851073E-10
   0.48750   0.30454580E-10
   0.48850   0.31088014E-10
   0.48950   0.31757746E-10
   0.49050   0.32473680E-10
   0.49150   0.33250125E-10
   0.49250   0.34107165E-10
   0.49350   0.35073153E-10
   0.49450   0.36190027E-10
   0.49550   0.37525930E-10
   0.49650   0.39208685E-10
   0.49750   0.41514948E-10
   0.49850   0.44772953E-10
   0.49950   0.48062068E-10
   0.50050   0.50789432E-10
   0.50150   0.53197950E-10
   0.50250   0.55448077E-10
   0.50350   0.57619982E-10
   0.50450   0.59758254E-10
   0.50550   0.61890534E-10
   0.50650   0.64035513E-10
   0.50750   0.66206741E-10
   0.50850   0.68414621E-10
   0.50950   0.70667472E-10
   0.51050   0.72972191E-10
   0.51150   0.75334627E-10
   0.51250   0.77759819E-10
   0.51350   0.80252131E-10
   0.51450   0.82815303E-10
   0.51550   0.85452444E-10
   0.51650   0.88165968E-10
   0.51750   0.90957332E-10
   0.51850   0.93826530E-10
   0.51950   0.96771001E-10
   0.52050   0.99786644E-10
   0.52150   0.10289793E-09
   0.52250   0.10613556E-09
   0.52350   0.10948018E-09
   0.52450   0.11292053E-09
   0.52550   0.11645764E-09
   0.52650   0.12010090E-09
   0.52750   0.12386678E-09
   0.52850   0.12777839E-09
   0.52950   0.13186528E-09
   0.53050   0.13616389E-09
   0.53150   0.14071812E-09
   0.53250   0.14557164E-09
   0.53350   0.15064960E-09
   0.53450   0.15572152E-09
   0.53550   0.16082197E-09
   0.53650   0.16601980E-09
   0.53750   0.17134734E-09
   0.53850   0.17682432E-09
   0.53950   0.18246599E-09
   0.54050   0.18828569E-09
   0.54150   0.19429584E-09
   0.54250   0.20050830E-09
   0.54350   0.20693447E-09
   0.54450   0.21358537E-09
   0.54550   0.22047157E-09
   0.54650   0.22760323E-09
   0.54750   0.23499003E-09
   0.54850   0.24264116E-09
   0.54950   0.25056535E-09
   0.55050   0.25877089E-09
   0.55150   0.26726568E-09
   0.55250   0.27605732E-09
   0.55350   0.28515318E-09
   0.55450   0.29456057E-09
   0.55550   0.30428685E-09
   0.55650   0.31433950E-09
   0.55750   0.32472647E-09
   0.55850   0.33545619E-09
   0.55950   0.34653772E-09
   0.56050   0.35798101E-09
   0.56150   0.36979686E-09
   0.56250   0.38199721E-09
   0.56350   0.39459511E-09
   0.56450   0.40760478E-09
   0.56550   0.42104167E-09
   0.56650   0.43492249E-09
   0.56750   0.44926513E-09
   0.56850   0.46408866E-09
   0.56950   0.47941323E-09
   0.57050   0.49526011E-09
   0.57150   0.51165155E-09
   0.57250   0.52861071E-09
   0.57350   0.54616162E-09
   0.57450   0.56432936E-09
   0.57550   0.58313987E-09
   0.57650   0.60262012E-09
   0.57750   0.62279831E-09
   0.57850   0.64370392E-09
   0.57950   0.66536804E-09
   0.58050   0.68782374E-09
   0.58150   0.71110617E-09
   0.58250   0.73525341E-09
   0.58350   0.76030648E-09
   0.58450   0.78631018E-09
   0.58550   0.81331364E-09
   0.58650   0.84137070E-09
   0.58750   0.87054092E-09
   0.58850   0.90088981E-09
   0.58950   0.93249009E-09
   0.59050   0.96542208E-09
   0.59150   0.99977460E-09
   0.59250   0.10356459E-08
   0.59350   0.10731445E-08
   0.59450   0.11123902E-08
   0.59550   0.11535154E-08
   0.59650   0.11966659E-08
   0.59750   0.12420025E-08
   0.59850   0.12897022E-08
   0.59950   0.13399601E-08
   0.60050   0.13929907E-08
   0.60150   0.14490300E-08
   0.60250   0.15083375E-08
   0.60350   0.15711984E-08
   0.60450   0.16379258E-08
   0.60550   0.17088632E-08
   0.60650   0.17843872E-08
   0.60750   0.18649102E-08
   0.60850   0.19508835E-08
   0.60950   0.20428010E-08
   0.61050   0.21412032E-08
   0.61150   0.22466831E-08
   0.61250   0.23598929E-08
   0.61350   0.24815561E-08
   0.61450   0.26124791E-08
   0.61550   0.27535587E-08
   0.61650   0.29056892E-08
   0.61750   0.30687481E-08
   0.61850   0.32365699E-08
   0.61950   0.34074246E-08
   0.62050   0.35964656E-08
   0.62150   0.38226631E-08
   0.62250   0.41049337E-08
   0.62350   0.44076209E-08
   0.62450   0.47036690E-08
   0.62550   0.50039946E-08
   0.62650   0.53158713E-08
   0.62750   0.56432854E-08
   0.62850   0.59890612E-08
   0.62950   0.63557031E-08
   0.63050   0.67457679E-08
   0.63150   0.71620736E-08
   0.63250   0.76078406E-08
   0.63350   0.80868139E-08
   0.63450   0.86033731E-08
   0.63550   0.91626431E-08
   0.63650   0.97706172E-08
   0.63750   0.10434279E-07
   0.63850   0.11161747E-07
   0.63950   0.11962430E-07
   0.64050   0.12847200E-07
   0.64150   0.13828594E-07
   0.64250   0.14921044E-07
   0.64350   0.16141136E-07
   0.64450   0.17507913E-07
   0.64550   0.19043229E-07
   0.64650   0.20772152E-07
   0.64750   0.22723443E-07
   0.64850   0.24930106E-07
   0.64950   0.27430037E-07
   0.65050   0.30266790E-07
   0.65150   0.33490462E-07
   0.65250   0.37158770E-07
   0.65350   0.41338314E-07
   0.65450   0.46106106E-07
   0.65550   0.51551400E-07
   0.65650   0.57777946E-07
   0.65750   0.64906729E-07
   0.65850   0.73079306E-07
   0.65950   0.82461987E-07
   0.66050   0.93250875E-07
   0.66150   0.10567818E-06
   0.66250   0.12001985E-06
   0.66350   0.13660504E-06
   0.66450   0.15582749E-06
   0.66550   0.17815952E-06
   0.66650   0.20416866E-06
   0.66750   0.23453785E-06
   0.66850   0.27008952E-06
   0.66950   0.31181423E-06
   0.67050   0.36090515E-06
   0.67150   0.41879881E-06
   0.67250   0.48722444E-06
   0.67350   0.56826372E-06
   0.67450   0.66442317E-06
   0.67550   0.77872528E-06
   0.67650   0.91482201E-06
   0.67750   0.10771411E-05
   0.67850   0.12710760E-05
   0.67950   0.15032381E-05
   0.68050   0.17817916E-05
   0.68150   0.21169103E-05
   0.68250   0.25213960E-05
   0.68350   0.30115309E-05
   0.68450   0.36082581E-05
   0.68550   0.43389050E-05
   0.68650   0.52405426E-05
   0.68750   0.63718599E-05
   0.68850   0.78169214E-05
   0.68950   0.96627300E-05
   0.69050   0.12024828E-04
   0.69150   0.15063337E-04
   0.69250   0.18999090E-04
   0.69350   0.24139841E-04
   0.69450   0.30920717E-04
   0.69550   0.39966908E-04
   0.69650   0.52192358E-04
   0.69750   0.68958441E-04
   0.69850   0.92335336E-04
   0.69950   0.12554490E-03
   0.70050   0.17373606E-03
   0.70150   0.24539512E-03
   0.70250   0.35502922E-03
   0.70350   0.52854849E-03
   0.70450   0.81475376E-03
   0.70550   0.13115541E-02
   0.70650   0.22318389E-02
   0.70750   0.40933979E-02
   0.70850   0.83464943E-02
   0.70950   0.19903794E-01
   0.71050   0.59829008E-01
   0.71150   0.21608356E+00
   0.71250   0.33807924E+00
   0.71350   0.23445183E+00
   0.71450   0.20236723E+00
   0.71550   0.22929043E+00
   0.71650   0.31372175E+00
   0.71750   0.47914314E+00
   0.71850   0.72392416E+00
   0.71950   0.82140839E+00
   0.72050   0.66484064E+00
   0.72150   0.43536210E+00
   0.72250   0.28444371E+00
   0.72350   0.19970314E+00
   0.72450   0.15336674E+00
   0.72550   0.12863474E+00
   0.72650   0.11636657E+00
   0.72750   0.11196390E+00
   0.72850   0.11454266E+00
   0.72950   0.12850426E+00
   0.73050   0.17521112E+00
   0.73150   0.39030242E+00
   0.73250   0.43839604E+00
   0.73350   0.12627594E+00
   0.73450   0.18482199E+00
   0.73550   0.35342327E+00
   0.73650   0.46385065E+00
   0.73750   0.38378450E+00
   0.73850   0.36873704E+00
   0.73950   0.47708154E+00
   0.74050   0.37905350E+00
   0.74150   0.34379098E+00
   0.74250   0.17135359E+00
   0.74350   0.21785007E+00
   0.74450   0.21475017E+00
   0.74550   0.56335992E+00
   0.74650   0.10616233E+01
   0.74750   0.10186986E+01
   0.74850   0.65050733E+00
   0.74950   0.26647222E+00
   0.75050   0.24129006E+00
   0.75150   0.15979099E+00
   0.75250   0.15479642E+00
   0.75350   0.16261703E+00
   0.75450   0.20661142E+00
   0.75550   0.17995366E+00
   0.75650   0.22110271E+00
   0.75750   0.28561452E+00
   0.75850   0.46585503E+00
   0.75950   0.12087380E+01
   0.76050   0.11097723E+01
   0.76150   0.45434740E+00
   0.76250   0.22481403E+00
   0.76350   0.23134919E+00
   0.76450   0.36195529E+00
   0.76550   0.21834843E+00
   0.76650   0.32863480E+00
   0.76750   0.10664171E+00
   0.76850   0.28216759E-01
   0.76950   0.10491715E-01
   0.77050   0.72098449E-02
   0.77150   0.47852215E-02
   0.77250   0.40867999E-02
   0.77350   0.53081359E-02
   0.77450   0.99116676E-02
   0.77550   0.21154858E-01
   0.77650   0.17096493E-01
   0.77750   0.65045948E-02
   0.77850   0.26427102E-02
   0.77950   0.12501347E-02
   0.78050   0.72440587E-03
   0.78150   0.52532775E-03
   0.78250   0.44145272E-03
   0.78350   0.39255622E-03
   0.78450   0.35212425E-03
   0.78550   0.31310719E-03
   0.78650   0.27579151E-03
   0.78750   0.24204966E-03
   0.78850   0.21319302E-03
   0.78950   0.18957569E-03
   0.79050   0.17083855E-03
   0.79150   0.15626871E-03
   0.79250   0.14508099E-03
   0.79350   0.13658337E-03
   0.79450   0.13024612E-03
   0.79550   0.12570745E-03
   0.79650   0.12274497E-03
   0.79750   0.12123441E-03
   0.79850   0.12110988E-03
   0.79950   0.12233344E-03
   0.80050   0.12487613E-03
   0.80150   0.12870855E-03
   0.80250   0.13379627E-03
   0.80350   0.14009554E-03
   0.80450   0.14754673E-03
   0.80550   0.15606674E-03
   0.80650   0.16554458E-03
   0.80750   0.17584587E-03
   0.80850   0.18683101E-03
   0.80950   0.19838878E-03
   0.81050   0.21048223E-03
   0.81150   0.22319969E-03
   0.81250   0.23679963E-03
   0.81350   0.25173716E-03
   0.81450   0.26866121E-03
   0.81550   0.28837525E-03
   0.81650   0.31175974E-03
   0.81750   0.33965785E-03
   0.81850   0.37272827E-03
   0.81950   0.41127004E-03
   0.82050   0.45502995E-03
   0.82150   0.50301570E-03
   0.82250   0.55335980E-03
   0.82350   0.60329679E-03
   0.82450   0.64927281E-03
   0.82550   0.68692857E-03
   0.82650   0.71124523E-03
   0.82750   0.72067842E-03
   0.82850   0.71574794E-03
   0.82950   0.69738430E-03
   0.83050   0.66760764E-03
   0.83150   0.62943058E-03
   0.83250   0.58642164E-03
   0.83350   0.54212689E-03
   0.83450   0.49952476E-03
   0.83550   0.46068282E-03
   0.83650   0.42667950E-03
   0.83750   0.39773411E-03
   0.83850   0.37343701E-03
   0.83950   0.35298476E-03
   0.84050   0.33535835E-03
   0.84150   0.31936917E-03
   0.84250   0.30327777E-03
   0.84350   0.28413598E-03
   0.84450   0.26312846E-03
   0.84550   0.24317355E-03
   0.84650   0.22457226E-03
   0.84750   0.20685860E-03
   0.84850   0.18910946E-03
   0.84950   0.17247919E-03
   0.85050   0.15789724E-03
   0.85150   0.14534705E-03
   0.85250   0.13464750E-03
   0.85350   0.12559062E-03
   0.85450   0.11796330E-03
   0.85550   0.11155559E-03
   0.85650   0.10616684E-03
   0.85750   0.10161092E-03
   0.85850   0.97719996E-04
   0.85950   0.94347204E-04
   0.86050   0.91368020E-04
   0.86150   0.88680586E-04
   0.86250   0.86205357E-04
   0.86350   0.83884042E-04
   0.86450   0.81678234E-04
   0.86550   0.79567682E-04
   0.86650   0.77548248E-04
   0.86750   0.75629658E-04
   0.86850   0.73832860E-04
   0.86950   0.72187016E-04
   0.87050   0.70726215E-04
   0.87150   0.69485795E-04
   0.87250   0.68498681E-04
   0.87350   0.67791756E-04
   0.87450   0.67382840E-04
   0.87550   0.67278539E-04
   0.87650   0.67473440E-04
   0.87750   0.67951005E-04
   0.87850   0.68686299E-04
   0.87950   0.69650479E-04
   0.88050   0.70816772E-04
   0.88150   0.72167080E-04
   0.88250   0.73698313E-04
   0.88350   0.75427182E-04
   0.88450   0.77392157E-04
   0.88550   0.79651545E-04
   0.88650   0.82277118E-04
   0.88750   0.85343490E-04
   0.88850   0.88914327E-04
   0.88950   0.93027680E-04
   0.89050   0.97683376E-04
   0.89150   0.10283597E-03
   0.89250   0.10839645E-03
   0.89350   0.11424511E-03
   0.89450   0.12025611E-03
   0.89550   0.12633202E-03
   0.89650   0.13244439E-03
   0.89750   0.13867434E-03
   0.89850   0.14524590E-03
   0.89950   0.15253495E-03
   0.90050   0.16084929E-03
   0.90150   0.16915810E-03
   0.90250   0.17647464E-03
   0.90350   0.18321617E-03
   0.90450   0.18965718E-03
   0.90550   0.19590583E-03
   0.90650   0.20201097E-03
   0.90750   0.20800896E-03
   0.90850   0.21394339E-03
   0.90950   0.21987793E-03
   0.91050   0.22590788E-03
   0.91150   0.23217131E-03
   0.91250   0.23885921E-03
   0.91350   0.24622263E-03
   0.91450   0.25457397E-03
   0.91550   0.26427957E-03
   0.91650   0.27573991E-03
   0.91750   0.28935669E-03
   0.91850   0.30548748E-03
   0.91950   0.32439423E-03
   0.92050   0.34619798E-03
   0.92150   0.37085958E-03
   0.92250   0.39821467E-03
   0.92350   0.42809465E-03
   0.92450   0.46056669E-03
   0.92550   0.49631519E-03
   0.92650   0.53716858E-03
   0.92750   0.58675028E-03
   0.92850   0.65121369E-03
   0.92950   0.74003491E-03
   0.93050   0.86690154E-03
   0.93150   0.10508557E-02
   0.93250   0.13179601E-02
   0.93350   0.17036744E-02
   0.93450   0.22555890E-02
   0.93550   0.30349919E-02
   0.93650   0.41147661E-02
   0.93750   0.55736932E-02
   0.93850   0.75006583E-02
   0.93950   0.10050608E-01
   0.94050   0.13608622E-01
   0.94150   0.19019578E-01
   0.94250   0.27591541E-01
   0.94350   0.40680926E-01
   0.94450   0.59679549E-01
   0.94550   0.88556245E-01
   0.94650   0.14205354E+00
   0.94750   0.25217435E+00
   0.94850   0.45479459E+00
   0.94950   0.71955210E+00
   0.95050   0.86101836E+00
   0.95150   0.75273144E+00
   0.95250   0.64834607E+00
   0.95350   0.68402183E+00
   0.95450   0.78212446E+00
   0.95550   0.91333598E+00
   0.95650   0.11378400E+01
   0.95750   0.12368728E+01
   0.95850   0.12306904E+01
   0.95950   0.12830709E+01
   0.96050   0.14867405E+01
   0.96150   0.18279861E+01
   0.96250   0.19942880E+01
   0.96350   0.20687075E+01
   0.96450   0.21009212E+01
   0.96550   0.22270710E+01
   0.96650   0.24460666E+01
   0.96750   0.26642447E+01
   0.96850   0.28839920E+01
   0.96950   0.30524564E+01
   0.97050   0.31283536E+01
   0.97150   0.31800883E+01
   0.97250   0.32480695E+01
   0.97350   0.32789588E+01
   0.97450   0.32393374E+01
   0.97550   0.31477168E+01
   0.97650   0.30580583E+01
   0.97750   0.29709389E+01
   0.97850   0.28714783E+01
   0.97950   0.27871375E+01
   0.98050   0.27291384E+01
   0.98150   0.26937032E+01
   0.98250   0.26725547E+01
   0.98350   0.26482079E+01
   0.98450   0.25983922E+01
   0.98550   0.25165713E+01
   0.98650   0.24104204E+01
   0.98750   0.22859845E+01
   0.98850   0.21671467E+01
   0.98950   0.20999372E+01
   0.99050   0.20629306E+01
   0.99150   0.20492575E+01
   0.99250   0.20613377E+01
   0.99350   0.20989776E+01
   0.99450   0.21595809E+01
   0.99550   0.22352540E+01
   0.99650   0.23095968E+01
   0.99750   0.23651922E+01
   0.99850   0.23996761E+01
   0.99950   0.24333417E+01
