# Transmission, k-averaged
# Date: 2021-05-13
#   E [eV]           T [G0]
   0.00050   0.56203562E+00
   0.00150   0.32834196E+00
   0.00250   0.15344344E+00
   0.00350   0.27076837E+00
   0.00450   0.25922477E+00
   0.00550   0.25922778E+00
   0.00650   0.27337566E+00
   0.00750   0.22557968E+00
   0.00850   0.15817264E+00
   0.00950   0.23306133E+00
   0.01050   0.15557829E+00
   0.01150   0.20409867E+00
   0.01250   0.14423901E+00
   0.01350   0.21186529E+00
   0.01450   0.13691720E+00
   0.01550   0.17985061E+00
   0.01650   0.17046848E+00
   0.01750   0.13565059E+00
   0.01850   0.18230826E+00
   0.01950   0.16192226E+00
   0.02050   0.13457002E+00
   0.02150   0.16885297E+00
   0.02250   0.16902944E+00
   0.02350   0.13462809E+00
   0.02450   0.14941506E+00
   0.02550   0.17613156E+00
   0.02650   0.14578189E+00
   0.02750   0.13593322E+00
   0.02850   0.16458280E+00
   0.02950   0.16553673E+00
   0.03050   0.14038859E+00
   0.03150   0.14599375E+00
   0.03250   0.16667753E+00
   0.03350   0.16039929E+00
   0.03450   0.14774390E+00
   0.03550   0.15314516E+00
   0.03650   0.16658667E+00
   0.03750   0.16882484E+00
   0.03850   0.16370396E+00
   0.03950   0.16614003E+00
   0.04050   0.17901155E+00
   0.04150   0.19474421E+00
   0.04250   0.20749153E+00
   0.04350   0.22662906E+00
   0.04450   0.27770796E+00
   0.04550   0.38296166E+00
   0.04650   0.48407197E+00
   0.04750   0.55098677E+00
   0.04850   0.59444410E+00
   0.04950   0.62732631E+00
   0.05050   0.65764904E+00
   0.05150   0.68738312E+00
   0.05250   0.71433836E+00
   0.05350   0.73553747E+00
   0.05450   0.75019091E+00
   0.05550   0.76040274E+00
   0.05650   0.76954055E+00
   0.05750   0.78006321E+00
   0.05850   0.79237515E+00
   0.05950   0.80504143E+00
   0.06050   0.81595558E+00
   0.06150   0.82374108E+00
   0.06250   0.82855701E+00
   0.06350   0.83186251E+00
   0.06450   0.83544904E+00
   0.06550   0.84046292E+00
   0.06650   0.84693700E+00
   0.06750   0.85393977E+00
   0.06850   0.86016661E+00
   0.06950   0.86465073E+00
   0.07050   0.86723089E+00
   0.07150   0.86855114E+00
   0.07250   0.86965406E+00
   0.07350   0.87144506E+00
   0.07450   0.87430811E+00
   0.07550   0.87800896E+00
   0.07650   0.88187218E+00
   0.07750   0.88512164E+00
   0.07850   0.88722992E+00
   0.07950   0.88812327E+00
   0.08050   0.88816768E+00
   0.08150   0.88796705E+00
   0.08250   0.88808924E+00
   0.08350   0.88884300E+00
   0.08450   0.89018136E+00
   0.08550   0.89174557E+00
   0.08650   0.89301825E+00
   0.08750   0.89352250E+00
   0.08850   0.89299643E+00
   0.08950   0.89149612E+00
   0.09050   0.88948226E+00
   0.09150   0.88839114E+00
   0.09250   0.89201474E+00
   0.09350   0.89938015E+00
   0.09450   0.90662462E+00
   0.09550   0.91296160E+00
   0.09650   0.91828305E+00
   0.09750   0.92262381E+00
   0.09850   0.92612660E+00
   0.09950   0.92901480E+00
   0.10050   0.93153977E+00
   0.10150   0.93392223E+00
   0.10250   0.93630755E+00
   0.10350   0.93874711E+00
   0.10450   0.94120777E+00
   0.10550   0.94360149E+00
   0.10650   0.94582558E+00
   0.10750   0.94779968E+00
   0.10850   0.94949073E+00
   0.10950   0.95091999E+00
   0.11050   0.95215291E+00
   0.11150   0.95327771E+00
   0.11250   0.95437926E+00
   0.11350   0.95551771E+00
   0.11450   0.95671642E+00
   0.11550   0.95796090E+00
   0.11650   0.95920861E+00
   0.11750   0.96040487E+00
   0.11850   0.96150011E+00
   0.11950   0.96246427E+00
   0.12050   0.96329361E+00
   0.12150   0.96401006E+00
   0.12250   0.96465337E+00
   0.12350   0.96526945E+00
   0.12450   0.96589792E+00
   0.12550   0.96656263E+00
   0.12650   0.96726739E+00
   0.12750   0.96799707E+00
   0.12850   0.96872342E+00
   0.12950   0.96941435E+00
   0.13050   0.97004253E+00
   0.13150   0.97059292E+00
   0.13250   0.97106552E+00
   0.13350   0.97147501E+00
   0.13450   0.97184557E+00
   0.13550   0.97220439E+00
   0.13650   0.97257447E+00
   0.13750   0.97296923E+00
   0.13850   0.97338963E+00
   0.13950   0.97382510E+00
   0.14050   0.97425687E+00
   0.14150   0.97466332E+00
   0.14250   0.97502601E+00
   0.14350   0.97533405E+00
   0.14450   0.97558689E+00
   0.14550   0.97579396E+00
   0.14650   0.97597194E+00
   0.14750   0.97614014E+00
   0.14850   0.97631574E+00
   0.14950   0.97650939E+00
   0.15050   0.97672254E+00
   0.15150   0.97694737E+00
   0.15250   0.97716898E+00
   0.15350   0.97736901E+00
   0.15450   0.97753054E+00
   0.15550   0.97764206E+00
   0.15650   0.97770071E+00
   0.15750   0.97771275E+00
   0.15850   0.97769195E+00
   0.15950   0.97765636E+00
   0.16050   0.97762352E+00
   0.16150   0.97760570E+00
   0.16250   0.97760689E+00
   0.16350   0.97762084E+00
   0.16450   0.97763246E+00
   0.16550   0.97762108E+00
   0.16650   0.97756517E+00
   0.16750   0.97744846E+00
   0.16850   0.97726452E+00
   0.16950   0.97702038E+00
   0.17050   0.97673738E+00
   0.17150   0.97645038E+00
   0.17250   0.97620791E+00
   0.17350   0.97608221E+00
   0.17450   0.97622192E+00
   0.17550   0.97699594E+00
   0.17650   0.97830951E+00
   0.17750   0.97925496E+00
   0.17850   0.97976935E+00
   0.17950   0.97997087E+00
   0.18050   0.97993463E+00
   0.18150   0.97970873E+00
   0.18250   0.97932827E+00
   0.18350   0.97882092E+00
   0.18450   0.97820872E+00
   0.18550   0.97750729E+00
   0.18650   0.97672534E+00
   0.18750   0.97586328E+00
   0.18850   0.97491294E+00
   0.18950   0.97385848E+00
   0.19050   0.97267723E+00
   0.19150   0.97134256E+00
   0.19250   0.96982670E+00
   0.19350   0.96810353E+00
   0.19450   0.96615142E+00
   0.19550   0.96395499E+00
   0.19650   0.96150565E+00
   0.19750   0.95880032E+00
   0.19850   0.95583916E+00
   0.19950   0.95262104E+00
   0.20050   0.94913870E+00
   0.20150   0.94537342E+00
   0.20250   0.94128996E+00
   0.20350   0.93683273E+00
   0.20450   0.93192381E+00
   0.20550   0.92646307E+00
   0.20650   0.92033064E+00
   0.20750   0.91339189E+00
   0.20850   0.90550256E+00
   0.20950   0.89651489E+00
   0.21050   0.88628137E+00
   0.21150   0.87465560E+00
   0.21250   0.86149079E+00
   0.21350   0.84664381E+00
   0.21450   0.83002394E+00
   0.21550   0.81186825E+00
   0.21650   0.79426920E+00
   0.21750   0.78834701E+00
   0.21850   0.80550802E+00
   0.21950   0.82545924E+00
   0.22050   0.84094179E+00
   0.22150   0.85276043E+00
   0.22250   0.86200559E+00
   0.22350   0.86944002E+00
   0.22450   0.87558073E+00
   0.22550   0.88078332E+00
   0.22650   0.88529390E+00
   0.22750   0.88928008E+00
   0.22850   0.89285094E+00
   0.22950   0.89607072E+00
   0.23050   0.89896953E+00
   0.23150   0.90155232E+00
   0.23250   0.90380609E+00
   0.23350   0.90571105E+00
   0.23450   0.90729910E+00
   0.23550   0.90874720E+00
   0.23650   0.91003531E+00
   0.23750   0.91113210E+00
   0.23850   0.91209060E+00
   0.23950   0.91296738E+00
   0.24050   0.91380501E+00
   0.24150   0.91462845E+00
   0.24250   0.91544616E+00
   0.24350   0.91625202E+00
   0.24450   0.91702926E+00
   0.24550   0.91775435E+00
   0.24650   0.91840130E+00
   0.24750   0.91894591E+00
   0.24850   0.91936898E+00
   0.24950   0.91965884E+00
   0.25050   0.91981238E+00
   0.25150   0.91983557E+00
   0.25250   0.91974217E+00
   0.25350   0.91955197E+00
   0.25450   0.91928828E+00
   0.25550   0.91897523E+00
   0.25650   0.91863489E+00
   0.25750   0.91828525E+00
   0.25850   0.91793787E+00
   0.25950   0.91759753E+00
   0.26050   0.91726124E+00
   0.26150   0.91691953E+00
   0.26250   0.91655737E+00
   0.26350   0.91615599E+00
   0.26450   0.91569573E+00
   0.26550   0.91515762E+00
   0.26650   0.91452634E+00
   0.26750   0.91379166E+00
   0.26850   0.91294974E+00
   0.26950   0.91200346E+00
   0.27050   0.91096222E+00
   0.27150   0.90984052E+00
   0.27250   0.90865606E+00
   0.27350   0.90742767E+00
   0.27450   0.90617239E+00
   0.27550   0.90490347E+00
   0.27650   0.90362817E+00
   0.27750   0.90234679E+00
   0.27850   0.90105230E+00
   0.27950   0.89973074E+00
   0.28050   0.89836311E+00
   0.28150   0.89692730E+00
   0.28250   0.89540070E+00
   0.28350   0.89376312E+00
   0.28450   0.89199889E+00
   0.28550   0.89009893E+00
   0.28650   0.88806134E+00
   0.28750   0.88589168E+00
   0.28850   0.88360184E+00
   0.28950   0.88120824E+00
   0.29050   0.87872958E+00
   0.29150   0.87618411E+00
   0.29250   0.87358713E+00
   0.29350   0.87094861E+00
   0.29450   0.86827159E+00
   0.29550   0.86555147E+00
   0.29650   0.86277658E+00
   0.29750   0.85993212E+00
   0.29850   0.85701126E+00
   0.29950   0.85398161E+00
   0.30050   0.85072607E+00
   0.30150   0.84723794E+00
   0.30250   0.84354448E+00
   0.30350   0.83966130E+00
   0.30450   0.83559686E+00
   0.30550   0.83135605E+00
   0.30650   0.82694137E+00
   0.30750   0.82235360E+00
   0.30850   0.81759161E+00
   0.30950   0.81265259E+00
   0.31050   0.80753195E+00
   0.31150   0.80222332E+00
   0.31250   0.79671872E+00
   0.31350   0.79100847E+00
   0.31450   0.78508168E+00
   0.31550   0.77892649E+00
   0.31650   0.77253067E+00
   0.31750   0.76588166E+00
   0.31850   0.75896752E+00
   0.31950   0.75177723E+00
   0.32050   0.74430120E+00
   0.32150   0.73653162E+00
   0.32250   0.72846287E+00
   0.32350   0.72009152E+00
   0.32450   0.71141642E+00
   0.32550   0.70243853E+00
   0.32650   0.69316053E+00
   0.32750   0.68358666E+00
   0.32850   0.67372185E+00
   0.32950   0.66357166E+00
   0.33050   0.65314180E+00
   0.33150   0.64243770E+00
   0.33250   0.63146490E+00
   0.33350   0.62022889E+00
   0.33450   0.60873604E+00
   0.33550   0.59699440E+00
   0.33650   0.58501446E+00
   0.33750   0.57281071E+00
   0.33850   0.56040269E+00
   0.33950   0.54781598E+00
   0.34050   0.53508288E+00
   0.34150   0.52224302E+00
   0.34250   0.50934315E+00
   0.34350   0.49643639E+00
   0.34450   0.48358163E+00
   0.34550   0.47084215E+00
   0.34650   0.45828456E+00
   0.34750   0.44597760E+00
   0.34850   0.43399161E+00
   0.34950   0.42239827E+00
   0.35050   0.41127095E+00
   0.35150   0.40068597E+00
   0.35250   0.39072451E+00
   0.35350   0.38147581E+00
   0.35450   0.37304220E+00
   0.35550   0.36554754E+00
   0.35650   0.35915276E+00
   0.35750   0.35408705E+00
   0.35850   0.35071662E+00
   0.35950   0.34971717E+00
   0.36050   0.35258028E+00
   0.36150   0.36340338E+00
   0.36250   0.39404970E+00
   0.36350   0.44633606E+00
   0.36450   0.49176463E+00
   0.36550   0.52632338E+00
   0.36650   0.55353391E+00
   0.36750   0.57575095E+00
   0.36850   0.59438205E+00
   0.36950   0.61031330E+00
   0.37050   0.62413555E+00
   0.37150   0.63626170E+00
   0.37250   0.64699173E+00
   0.37350   0.65655035E+00
   0.37450   0.66511011E+00
   0.37550   0.67280644E+00
   0.37650   0.67974770E+00
   0.37750   0.68602180E+00
   0.37850   0.69170111E+00
   0.37950   0.69684589E+00
   0.38050   0.70150685E+00
   0.38150   0.70573294E+00
   0.38250   0.70961684E+00
   0.38350   0.71324813E+00
   0.38450   0.71662158E+00
   0.38550   0.71973550E+00
   0.38650   0.72259378E+00
   0.38750   0.72519904E+00
   0.38850   0.72755295E+00
   0.38950   0.72965813E+00
   0.39050   0.73152000E+00
   0.39150   0.73314875E+00
   0.39250   0.73456007E+00
   0.39350   0.73577416E+00
   0.39450   0.73681426E+00
   0.39550   0.73770362E+00
   0.39650   0.73846257E+00
   0.39750   0.73910606E+00
   0.39850   0.73964226E+00
   0.39950   0.74007279E+00
   0.40050   0.74039394E+00
   0.40150   0.74059886E+00
   0.40250   0.74068016E+00
   0.40350   0.74063200E+00
   0.40450   0.74045140E+00
   0.40550   0.74013913E+00
   0.40650   0.73969960E+00
   0.40750   0.73914003E+00
   0.40850   0.73846954E+00
   0.40950   0.73769808E+00
   0.41050   0.73683560E+00
   0.41150   0.73589152E+00
   0.41250   0.73487496E+00
   0.41350   0.73379779E+00
   0.41450   0.73267251E+00
   0.41550   0.73146629E+00
   0.41650   0.73015499E+00
   0.41750   0.72874570E+00
   0.41850   0.72724527E+00
   0.41950   0.72565866E+00
   0.42050   0.72398984E+00
   0.42150   0.72224218E+00
   0.42250   0.72041893E+00
   0.42350   0.71852314E+00
   0.42450   0.71655786E+00
   0.42550   0.71452618E+00
   0.42650   0.71243113E+00
   0.42750   0.71027595E+00
   0.42850   0.70806402E+00
   0.42950   0.70579875E+00
   0.43050   0.70348388E+00
   0.43150   0.70112330E+00
   0.43250   0.69872111E+00
   0.43350   0.69628131E+00
   0.43450   0.69380784E+00
   0.43550   0.69130421E+00
   0.43650   0.68877333E+00
   0.43750   0.68621826E+00
   0.43850   0.68364340E+00
   0.43950   0.68105561E+00
   0.44050   0.67846346E+00
   0.44150   0.67587566E+00
   0.44250   0.67329997E+00
   0.44350   0.67074335E+00
   0.44450   0.66821247E+00
   0.44550   0.66571456E+00
   0.44650   0.66325724E+00
   0.44750   0.66084868E+00
   0.44850   0.65849745E+00
   0.44950   0.65621257E+00
   0.45050   0.65400326E+00
   0.45150   0.65187883E+00
   0.45250   0.64984900E+00
   0.45350   0.64792335E+00
   0.45450   0.64611179E+00
   0.45550   0.64442402E+00
   0.45650   0.64286977E+00
   0.45750   0.64145875E+00
   0.45850   0.64020044E+00
   0.45950   0.63910401E+00
   0.46050   0.63817859E+00
   0.46150   0.63743287E+00
   0.46250   0.63687575E+00
   0.46350   0.63651556E+00
   0.46450   0.63635761E+00
   0.46550   0.63640457E+00
   0.46650   0.63666439E+00
   0.46750   0.63714391E+00
   0.46850   0.63784623E+00
   0.46950   0.63877350E+00
   0.47050   0.63992733E+00
   0.47150   0.64130825E+00
   0.47250   0.64291590E+00
   0.47350   0.64474851E+00
   0.47450   0.64680320E+00
   0.47550   0.64907587E+00
   0.47650   0.65156096E+00
   0.47750   0.65425169E+00
   0.47850   0.65713984E+00
   0.47950   0.66021574E+00
   0.48050   0.66346824E+00
   0.48150   0.66688454E+00
   0.48250   0.67045009E+00
   0.48350   0.67414832E+00
   0.48450   0.67796057E+00
   0.48550   0.68186551E+00
   0.48650   0.68583876E+00
   0.48750   0.68985194E+00
   0.48850   0.69387180E+00
   0.48950   0.69785833E+00
   0.49050   0.70176250E+00
   0.49150   0.70552242E+00
   0.49250   0.70905685E+00
   0.49350   0.71225554E+00
   0.49450   0.71496117E+00
   0.49550   0.71694034E+00
   0.49650   0.71785069E+00
   0.49750   0.71742558E+00
   0.49850   0.71776557E+00
   0.49950   0.72303498E+00
   0.50050   0.73018402E+00
   0.50150   0.73719829E+00
   0.50250   0.74370831E+00
   0.50350   0.74968868E+00
   0.50450   0.75518215E+00
   0.50550   0.76024115E+00
   0.50650   0.76491481E+00
   0.50750   0.76924580E+00
   0.50850   0.77327085E+00
   0.50950   0.77702123E+00
   0.51050   0.78052390E+00
   0.51150   0.78380203E+00
   0.51250   0.78687596E+00
   0.51350   0.78976327E+00
   0.51450   0.79247957E+00
   0.51550   0.79503858E+00
   0.51650   0.79745269E+00
   0.51750   0.79973269E+00
   0.51850   0.80188841E+00
   0.51950   0.80392849E+00
   0.52050   0.80586076E+00
   0.52150   0.80769503E+00
   0.52250   0.80944014E+00
   0.52350   0.81110084E+00
   0.52450   0.81268239E+00
   0.52550   0.81419015E+00
   0.52650   0.81562924E+00
   0.52750   0.81700462E+00
   0.52850   0.81832075E+00
   0.52950   0.81958210E+00
   0.53050   0.82079285E+00
   0.53150   0.82195723E+00
   0.53250   0.82308036E+00
   0.53350   0.82417035E+00
   0.53450   0.82522893E+00
   0.53550   0.82625461E+00
   0.53650   0.82725042E+00
   0.53750   0.82822019E+00
   0.53850   0.82916737E+00
   0.53950   0.83009541E+00
   0.54050   0.83100748E+00
   0.54150   0.83190668E+00
   0.54250   0.83279616E+00
   0.54350   0.83367884E+00
   0.54450   0.83455783E+00
   0.54550   0.83543605E+00
   0.54650   0.83631635E+00
   0.54750   0.83720165E+00
   0.54850   0.83809483E+00
   0.54950   0.83899879E+00
   0.55050   0.83991629E+00
   0.55150   0.84085017E+00
   0.55250   0.84180319E+00
   0.55350   0.84277809E+00
   0.55450   0.84377766E+00
   0.55550   0.84480447E+00
   0.55650   0.84586126E+00
   0.55750   0.84695059E+00
   0.55850   0.84807497E+00
   0.55950   0.84923691E+00
   0.56050   0.85043877E+00
   0.56150   0.85168290E+00
   0.56250   0.85297155E+00
   0.56350   0.85430682E+00
   0.56450   0.85569078E+00
   0.56550   0.85712528E+00
   0.56650   0.85861206E+00
   0.56750   0.86015284E+00
   0.56850   0.86174905E+00
   0.56950   0.86340195E+00
   0.57050   0.86511266E+00
   0.57150   0.86688215E+00
   0.57250   0.86871105E+00
   0.57350   0.87059987E+00
   0.57450   0.87254894E+00
   0.57550   0.87455827E+00
   0.57650   0.87662756E+00
   0.57750   0.87875634E+00
   0.57850   0.88094383E+00
   0.57950   0.88318902E+00
   0.58050   0.88549054E+00
   0.58150   0.88784671E+00
   0.58250   0.89025557E+00
   0.58350   0.89271492E+00
   0.58450   0.89522201E+00
   0.58550   0.89777392E+00
   0.58650   0.90036738E+00
   0.58750   0.90299869E+00
   0.58850   0.90566373E+00
   0.58950   0.90835816E+00
   0.59050   0.91107696E+00
   0.59150   0.91381496E+00
   0.59250   0.91656625E+00
   0.59350   0.91932464E+00
   0.59450   0.92208314E+00
   0.59550   0.92483443E+00
   0.59650   0.92757040E+00
   0.59750   0.93028206E+00
   0.59850   0.93295974E+00
   0.59950   0.93559271E+00
   0.60050   0.93816912E+00
   0.60150   0.94067585E+00
   0.60250   0.94309819E+00
   0.60350   0.94541949E+00
   0.60450   0.94762093E+00
   0.60550   0.94968116E+00
   0.60650   0.95157522E+00
   0.60750   0.95327437E+00
   0.60850   0.95474470E+00
   0.60950   0.95594579E+00
   0.61050   0.95682919E+00
   0.61150   0.95733571E+00
   0.61250   0.95739198E+00
   0.61350   0.95690584E+00
   0.61450   0.95575869E+00
   0.61550   0.95379472E+00
   0.61650   0.95080328E+00
   0.61750   0.94649136E+00
   0.61850   0.94044036E+00
   0.61950   0.93201602E+00
   0.62050   0.92023838E+00
   0.62150   0.90404576E+00
   0.62250   0.88719028E+00
   0.62350   0.88176781E+00
   0.62450   0.88323259E+00
   0.62550   0.88626963E+00
   0.62650   0.88957697E+00
   0.62750   0.89282781E+00
   0.62850   0.89593399E+00
   0.62950   0.89887726E+00
   0.63050   0.90166157E+00
   0.63150   0.90429831E+00
   0.63250   0.90680027E+00
   0.63350   0.90918010E+00
   0.63450   0.91144931E+00
   0.63550   0.91361839E+00
   0.63650   0.91569656E+00
   0.63750   0.91769207E+00
   0.63850   0.91961223E+00
   0.63950   0.92146349E+00
   0.64050   0.92325169E+00
   0.64150   0.92498189E+00
   0.64250   0.92665881E+00
   0.64350   0.92828649E+00
   0.64450   0.92986864E+00
   0.64550   0.93140858E+00
   0.64650   0.93290919E+00
   0.64750   0.93437314E+00
   0.64850   0.93580276E+00
   0.64950   0.93720013E+00
   0.65050   0.93856704E+00
   0.65150   0.93990511E+00
   0.65250   0.94121569E+00
   0.65350   0.94249988E+00
   0.65450   0.94375873E+00
   0.65550   0.94499284E+00
   0.65650   0.94620293E+00
   0.65750   0.94738925E+00
   0.65850   0.94855207E+00
   0.65950   0.94969130E+00
   0.66050   0.95080686E+00
   0.66150   0.95189822E+00
   0.66250   0.95296490E+00
   0.66350   0.95400608E+00
   0.66450   0.95502067E+00
   0.66550   0.95600742E+00
   0.66650   0.95696497E+00
   0.66750   0.95789140E+00
   0.66850   0.95878476E+00
   0.66950   0.95964277E+00
   0.67050   0.96046269E+00
   0.67150   0.96124166E+00
   0.67250   0.96197623E+00
   0.67350   0.96266276E+00
   0.67450   0.96329701E+00
   0.67550   0.96387428E+00
   0.67650   0.96438944E+00
   0.67750   0.96483660E+00
   0.67850   0.96520925E+00
   0.67950   0.96550012E+00
   0.68050   0.96570092E+00
   0.68150   0.96580231E+00
   0.68250   0.96579379E+00
   0.68350   0.96566325E+00
   0.68450   0.96539682E+00
   0.68550   0.96497959E+00
   0.68650   0.96440136E+00
   0.68750   0.96368587E+00
   0.68850   0.96283078E+00
   0.68950   0.96176463E+00
   0.69050   0.96044648E+00
   0.69150   0.95884353E+00
   0.69250   0.95691925E+00
   0.69350   0.95463067E+00
   0.69450   0.95192677E+00
   0.69550   0.94874686E+00
   0.69650   0.94501865E+00
   0.69750   0.94065541E+00
   0.69850   0.93555295E+00
   0.69950   0.92958570E+00
   0.70050   0.92260236E+00
   0.70150   0.91442198E+00
   0.70250   0.90483356E+00
   0.70350   0.89361322E+00
   0.70450   0.88061112E+00
   0.70550   0.86582839E+00
   0.70650   0.84813070E+00
   0.70750   0.82552636E+00
   0.70850   0.79561138E+00
   0.70950   0.75361747E+00
   0.71050   0.69168311E+00
   0.71150   0.64855248E+00
   0.71250   0.83231783E+00
   0.71350   0.88855213E+00
   0.71450   0.86973268E+00
   0.71550   0.85301673E+00
   0.71650   0.84186077E+00
   0.71750   0.82370901E+00
   0.71850   0.77360958E+00
   0.71950   0.73080045E+00
   0.72050   0.74059975E+00
   0.72150   0.81079054E+00
   0.72250   0.88634145E+00
   0.72350   0.95042509E+00
   0.72450   0.99925429E+00
   0.72550   0.10302399E+01
   0.72650   0.10433947E+01
   0.72750   0.10426928E+01
   0.72850   0.10335573E+01
   0.72950   0.10204886E+01
   0.73050   0.10068353E+01
   0.73150   0.99113226E+00
   0.73250   0.10120673E+01
   0.73350   0.11308104E+01
   0.73450   0.11996714E+01
   0.73550   0.12470899E+01
   0.73650   0.12467901E+01
   0.73750   0.12274610E+01
   0.73850   0.12401865E+01
   0.73950   0.12658759E+01
   0.74050   0.13293686E+01
   0.74150   0.12739129E+01
   0.74250   0.11596098E+01
   0.74350   0.11248765E+01
   0.74450   0.12098485E+01
   0.74550   0.13854454E+01
   0.74650   0.11400542E+01
   0.74750   0.13774014E+01
   0.74850   0.14213251E+01
   0.74950   0.17221564E+01
   0.75050   0.16860034E+01
   0.75150   0.17803992E+01
   0.75250   0.17200102E+01
   0.75350   0.17638997E+01
   0.75450   0.15564222E+01
   0.75550   0.13458548E+01
   0.75650   0.14651374E+01
   0.75750   0.15032507E+01
   0.75850   0.14305664E+01
   0.75950   0.14002415E+01
   0.76050   0.14095017E+01
   0.76150   0.15870054E+01
   0.76250   0.17361035E+01
   0.76350   0.16000049E+01
   0.76450   0.15980251E+01
   0.76550   0.13588372E+01
   0.76650   0.15947043E+01
   0.76750   0.18419300E+01
   0.76850   0.21385586E+01
   0.76950   0.22275069E+01
   0.77050   0.22924082E+01
   0.77150   0.23524013E+01
   0.77250   0.23917224E+01
   0.77350   0.24169409E+01
   0.77450   0.24346519E+01
   0.77550   0.24578106E+01
   0.77650   0.24825530E+01
   0.77750   0.24854980E+01
   0.77850   0.24844239E+01
   0.77950   0.24837861E+01
   0.78050   0.24847751E+01
   0.78150   0.24874094E+01
   0.78250   0.24912755E+01
   0.78350   0.24954822E+01
   0.78450   0.24993920E+01
   0.78550   0.25030010E+01
   0.78650   0.25064666E+01
   0.78750   0.25099335E+01
   0.78850   0.25134819E+01
   0.78950   0.25171261E+01
   0.79050   0.25208373E+01
   0.79150   0.25245700E+01
   0.79250   0.25282845E+01
   0.79350   0.25319610E+01
   0.79450   0.25356028E+01
   0.79550   0.25392370E+01
   0.79650   0.25429065E+01
   0.79750   0.25466630E+01
   0.79850   0.25505569E+01
   0.79950   0.25546312E+01
   0.80050   0.25589173E+01
   0.80150   0.25634336E+01
   0.80250   0.25681896E+01
   0.80350   0.25731883E+01
   0.80450   0.25784318E+01
   0.80550   0.25839212E+01
   0.80650   0.25896513E+01
   0.80750   0.25956066E+01
   0.80850   0.26017528E+01
   0.80950   0.26080379E+01
   0.81050   0.26143985E+01
   0.81150   0.26207743E+01
   0.81250   0.26271296E+01
   0.81350   0.26334689E+01
   0.81450   0.26398449E+01
   0.81550   0.26463497E+01
   0.81650   0.26530936E+01
   0.81750   0.26601748E+01
   0.81850   0.26676509E+01
   0.81950   0.26755240E+01
   0.82050   0.26837442E+01
   0.82150   0.26922362E+01
   0.82250   0.27009592E+01
   0.82350   0.27100461E+01
   0.82450   0.27202387E+01
   0.82550   0.27343495E+01
   0.82650   0.27545002E+01
   0.82750   0.27723868E+01
   0.82850   0.27860723E+01
   0.82950   0.27970002E+01
   0.83050   0.28060901E+01
   0.83150   0.28138041E+01
   0.83250   0.28203721E+01
   0.83350   0.28259411E+01
   0.83450   0.28306561E+01
   0.83550   0.28346829E+01
   0.83650   0.28381946E+01
   0.83750   0.28413446E+01
   0.83850   0.28442490E+01
   0.83950   0.28469777E+01
   0.84050   0.28495638E+01
   0.84150   0.28520288E+01
   0.84250   0.28544877E+01
   0.84350   0.28573842E+01
   0.84450   0.28605917E+01
   0.84550   0.28635767E+01
   0.84650   0.28663151E+01
   0.84750   0.28690958E+01
   0.84850   0.28724384E+01
   0.84950   0.28757875E+01
   0.85050   0.28787434E+01
   0.85150   0.28813250E+01
   0.85250   0.28835912E+01
   0.85350   0.28855941E+01
   0.85450   0.28873773E+01
   0.85550   0.28889782E+01
   0.85650   0.28904283E+01
   0.85750   0.28917546E+01
   0.85850   0.28929780E+01
   0.85950   0.28941145E+01
   0.86050   0.28951750E+01
   0.86150   0.28961647E+01
   0.86250   0.28970842E+01
   0.86350   0.28979299E+01
   0.86450   0.28986945E+01
   0.86550   0.28993680E+01
   0.86650   0.28999386E+01
   0.86750   0.29003935E+01
   0.86850   0.29007206E+01
   0.86950   0.29009080E+01
   0.87050   0.29009459E+01
   0.87150   0.29008269E+01
   0.87250   0.29005470E+01
   0.87350   0.29001045E+01
   0.87450   0.28995013E+01
   0.87550   0.28987417E+01
   0.87650   0.28978322E+01
   0.87750   0.28967791E+01
   0.87850   0.28955891E+01
   0.87950   0.28942661E+01
   0.88050   0.28928111E+01
   0.88150   0.28912199E+01
   0.88250   0.28894839E+01
   0.88350   0.28875883E+01
   0.88450   0.28855133E+01
   0.88550   0.28832352E+01
   0.88650   0.28807275E+01
   0.88750   0.28779621E+01
   0.88850   0.28749113E+01
   0.88950   0.28715489E+01
   0.89050   0.28678517E+01
   0.89150   0.28637993E+01
   0.89250   0.28593757E+01
   0.89350   0.28545699E+01
   0.89450   0.28493793E+01
   0.89550   0.28438225E+01
   0.89650   0.28379688E+01
   0.89750   0.28320322E+01
   0.89850   0.28266740E+01
   0.89950   0.28241885E+01
   0.90050   0.28329139E+01
   0.90150   0.28601096E+01
   0.90250   0.28858204E+01
   0.90350   0.29043658E+01
   0.90450   0.29181011E+01
   0.90550   0.29287584E+01
   0.90650   0.29373453E+01
   0.90750   0.29444699E+01
   0.90850   0.29505210E+01
   0.90950   0.29557579E+01
   0.91050   0.29603601E+01
   0.91150   0.29644544E+01
   0.91250   0.29681323E+01
   0.91350   0.29714599E+01
   0.91450   0.29744873E+01
   0.91550   0.29772525E+01
   0.91650   0.29797864E+01
   0.91750   0.29821138E+01
   0.91850   0.29842536E+01
   0.91950   0.29862163E+01
   0.92050   0.29880004E+01
   0.92150   0.29895871E+01
   0.92250   0.29909365E+01
   0.92350   0.29919834E+01
   0.92450   0.29926388E+01
   0.92550   0.29927926E+01
   0.92650   0.29923217E+01
   0.92750   0.29911001E+01
   0.92850   0.29890063E+01
   0.92950   0.29859259E+01
   0.93050   0.29817412E+01
   0.93150   0.29763024E+01
   0.93250   0.29693789E+01
   0.93350   0.29605961E+01
   0.93450   0.29493761E+01
   0.93550   0.29349284E+01
   0.93650   0.29163511E+01
   0.93750   0.28928881E+01
   0.93850   0.28642695E+01
   0.93950   0.28308530E+01
   0.94050   0.27933440E+01
   0.94150   0.27528718E+01
   0.94250   0.27133956E+01
   0.94350   0.26856542E+01
   0.94450   0.26836715E+01
   0.94550   0.26981456E+01
   0.94650   0.26770613E+01
   0.94750   0.26081204E+01
   0.94850   0.25379221E+01
   0.94950   0.25137799E+01
   0.95050   0.25458629E+01
   0.95150   0.25313632E+01
   0.95250   0.25143807E+01
   0.95350   0.24869752E+01
   0.95450   0.25180759E+01
   0.95550   0.26414678E+01
   0.95650   0.27580345E+01
   0.95750   0.27291040E+01
   0.95850   0.26919940E+01
   0.95950   0.27188225E+01
   0.96050   0.27472136E+01
   0.96150   0.27227495E+01
   0.96250   0.26982682E+01
   0.96350   0.26292460E+01
   0.96450   0.25399795E+01
   0.96550   0.24131625E+01
   0.96650   0.22828975E+01
   0.96750   0.22175806E+01
   0.96850   0.22119138E+01
   0.96950   0.22929695E+01
   0.97050   0.24032938E+01
   0.97150   0.24209411E+01
   0.97250   0.23869097E+01
   0.97350   0.24371862E+01
   0.97450   0.25648270E+01
   0.97550   0.26897736E+01
   0.97650   0.27417266E+01
   0.97750   0.27324502E+01
   0.97850   0.27211084E+01
   0.97950   0.27176716E+01
   0.98050   0.27120707E+01
   0.98150   0.27065840E+01
   0.98250   0.27119179E+01
   0.98350   0.27399018E+01
   0.98450   0.27932973E+01
   0.98550   0.28669448E+01
   0.98650   0.29569716E+01
   0.98750   0.30573375E+01
   0.98850   0.31532292E+01
   0.98950   0.32354012E+01
   0.99050   0.32954705E+01
   0.99150   0.33278556E+01
   0.99250   0.33325217E+01
   0.99350   0.33195560E+01
   0.99450   0.33052099E+01
   0.99550   0.32908440E+01
   0.99650   0.32844217E+01
   0.99750   0.32952120E+01
   0.99850   0.33139858E+01
   0.99950   0.33281462E+01
