# Transmission, k-averaged
# Date: 2021-05-13
#   E [eV]           T [G0]
   0.00050   0.11757423E-04
   0.00150   0.17547356E-02
   0.00250   0.32035589E-01
   0.00350   0.60042478E-01
   0.00450   0.69956340E-01
   0.00550   0.47421854E-01
   0.00650   0.32193687E-01
   0.00750   0.12673426E+00
   0.00850   0.18700415E-01
   0.00950   0.51421203E-01
   0.01050   0.13027679E-01
   0.01150   0.11828801E+00
   0.01250   0.98852785E-02
   0.01350   0.20973040E-01
   0.01450   0.36512889E-01
   0.01550   0.74444157E-02
   0.01650   0.13611678E-01
   0.01750   0.89305244E-01
   0.01850   0.79777623E-02
   0.01950   0.59630098E-02
   0.02050   0.20624921E-01
   0.02150   0.41547567E-01
   0.02250   0.59582880E-02
   0.02350   0.42464905E-02
   0.02450   0.88542448E-02
   0.02550   0.11465545E+00
   0.02650   0.90228906E-02
   0.02750   0.33726920E-02
   0.02850   0.31713760E-02
   0.02950   0.70220283E-02
   0.03050   0.89570962E-01
   0.03150   0.90634562E-02
   0.03250   0.28690689E-02
   0.03350   0.21551102E-02
   0.03450   0.30427123E-02
   0.03550   0.10827902E-01
   0.03650   0.51998541E-01
   0.03750   0.48403591E-02
   0.03850   0.20671915E-02
   0.03950   0.17091918E-02
   0.04050   0.24138307E-02
   0.04150   0.72789993E-02
   0.04250   0.60920205E-01
   0.04350   0.69961408E-02
   0.04450   0.30502086E-02
   0.04550   0.29255045E-02
   0.04650   0.38802875E-02
   0.04750   0.62974370E-02
   0.04850   0.11207441E-01
   0.04950   0.12598260E-01
   0.05050   0.76844431E-02
   0.05150   0.46915133E-02
   0.05250   0.34827280E-02
   0.05350   0.31296948E-02
   0.05450   0.33141498E-02
   0.05550   0.39843093E-02
   0.05650   0.50169365E-02
   0.05750   0.56554764E-02
   0.05850   0.50643277E-02
   0.05950   0.39358549E-02
   0.06050   0.30916678E-02
   0.06150   0.26447785E-02
   0.06250   0.25080065E-02
   0.06350   0.26190986E-02
   0.06450   0.29425011E-02
   0.06550   0.33923825E-02
   0.06650   0.37277178E-02
   0.06750   0.36635851E-02
   0.06850   0.32445306E-02
   0.06950   0.27676446E-02
   0.07050   0.24195586E-02
   0.07150   0.22394587E-02
   0.07250   0.22160597E-02
   0.07350   0.23334420E-02
   0.07450   0.25687257E-02
   0.07550   0.28605834E-02
   0.07650   0.30798679E-02
   0.07750   0.30880042E-02
   0.07850   0.28793344E-02
   0.07950   0.25848753E-02
   0.08050   0.23309796E-02
   0.08150   0.21753721E-02
   0.08250   0.21319166E-02
   0.08350   0.22004088E-02
   0.08450   0.23751881E-02
   0.08550   0.26336159E-02
   0.08650   0.29101660E-02
   0.08750   0.30886428E-02
   0.08850   0.30713622E-02
   0.08950   0.28786331E-02
   0.09050   0.26236493E-02
   0.09150   0.23996967E-02
   0.09250   0.22257667E-02
   0.09350   0.21302802E-02
   0.09450   0.21200234E-02
   0.09550   0.21571475E-02
   0.09650   0.21937601E-02
   0.09750   0.21825081E-02
   0.09850   0.20976425E-02
   0.09950   0.19507441E-02
   0.10050   0.17787656E-02
   0.10150   0.16177357E-02
   0.10250   0.14885110E-02
   0.10350   0.13977599E-02
   0.10450   0.13437605E-02
   0.10550   0.13204976E-02
   0.10650   0.13191387E-02
   0.10750   0.13281831E-02
   0.10850   0.13341510E-02
   0.10950   0.13243895E-02
   0.11050   0.12916578E-02
   0.11150   0.12373291E-02
   0.11250   0.11700918E-02
   0.11350   0.11011390E-02
   0.11450   0.10397171E-02
   0.11550   0.99128741E-03
   0.11650   0.95776055E-03
   0.11750   0.93838753E-03
   0.11850   0.93045802E-03
   0.11950   0.92968944E-03
   0.12050   0.93062711E-03
   0.12150   0.92749664E-03
   0.12250   0.91566320E-03
   0.12350   0.89318200E-03
   0.12450   0.86144730E-03
   0.12550   0.82439772E-03
   0.12650   0.78682060E-03
   0.12750   0.75281260E-03
   0.12850   0.72500191E-03
   0.12950   0.70444721E-03
   0.13050   0.69084781E-03
   0.13150   0.68279612E-03
   0.13250   0.67801093E-03
   0.13350   0.67364390E-03
   0.13450   0.66678430E-03
   0.13550   0.65516290E-03
   0.13650   0.63782185E-03
   0.13750   0.61538408E-03
   0.13850   0.58973028E-03
   0.13950   0.56326779E-03
   0.14050   0.53819182E-03
   0.14150   0.51602494E-03
   0.14250   0.49747335E-03
   0.14350   0.48248385E-03
   0.14450   0.47038301E-03
   0.14550   0.46004611E-03
   0.14650   0.45010340E-03
   0.14750   0.43920527E-03
   0.14850   0.42632950E-03
   0.14950   0.41104341E-03
   0.15050   0.39360294E-03
   0.15150   0.37482937E-03
   0.15250   0.35582302E-03
   0.15350   0.33765205E-03
   0.15450   0.32113356E-03
   0.15550   0.30674424E-03
   0.15650   0.29463184E-03
   0.15750   0.28467842E-03
   0.15850   0.27658103E-03
   0.15950   0.26993378E-03
   0.16050   0.26431005E-03
   0.16150   0.25934380E-03
   0.16250   0.25480188E-03
   0.16350   0.25063276E-03
   0.16450   0.24697764E-03
   0.16550   0.24414179E-03
   0.16650   0.24253817E-03
   0.16750   0.24262244E-03
   0.16850   0.24483437E-03
   0.16950   0.24954547E-03
   0.17050   0.25699657E-03
   0.17150   0.26719100E-03
   0.17250   0.27967300E-03
   0.17350   0.29300337E-03
   0.17450   0.30320577E-03
   0.17550   0.29974626E-03
   0.17650   0.27959619E-03
   0.17750   0.26116145E-03
   0.17850   0.24719455E-03
   0.17950   0.23590047E-03
   0.18050   0.22615764E-03
   0.18150   0.21737856E-03
   0.18250   0.20923818E-03
   0.18350   0.20152754E-03
   0.18450   0.19408700E-03
   0.18550   0.18678560E-03
   0.18650   0.17952596E-03
   0.18750   0.17225911E-03
   0.18850   0.16499741E-03
   0.18950   0.15781744E-03
   0.19050   0.15085025E-03
   0.19150   0.14426184E-03
   0.19250   0.13823039E-03
   0.19350   0.13292750E-03
   0.19450   0.12850798E-03
   0.19550   0.12510997E-03
   0.19650   0.12286480E-03
   0.19750   0.12191543E-03
   0.19850   0.12244383E-03
   0.19950   0.12471051E-03
   0.20050   0.12911370E-03
   0.20150   0.13628499E-03
   0.20250   0.14725397E-03
   0.20350   0.16375120E-03
   0.20450   0.18880036E-03
   0.20550   0.22794635E-03
   0.20650   0.29193136E-03
   0.20750   0.40255391E-03
   0.20850   0.60293439E-03
   0.20950   0.94605837E-03
   0.21050   0.12863136E-02
   0.21150   0.11447279E-02
   0.21250   0.74813474E-03
   0.21350   0.47880952E-03
   0.21450   0.33484588E-03
   0.21550   0.25995710E-03
   0.21650   0.22498259E-03
   0.21750   0.22398548E-03
   0.21850   0.25124953E-03
   0.21950   0.28251307E-03
   0.22050   0.30768968E-03
   0.22150   0.31374168E-03
   0.22250   0.28111853E-03
   0.22350   0.20553224E-03
   0.22450   0.11874557E-03
   0.22550   0.57074798E-04
   0.22650   0.25474032E-04
   0.22750   0.11802291E-04
   0.22850   0.61462542E-05
   0.22950   0.37385591E-05
   0.23050   0.26562495E-05
   0.23150   0.21492888E-05
   0.23250   0.19145766E-05
   0.23350   0.18188090E-05
   0.23450   0.17740265E-05
   0.23550   0.16775886E-05
   0.23650   0.15540526E-05
   0.23750   0.14410067E-05
   0.23850   0.13402781E-05
   0.23950   0.12490592E-05
   0.24050   0.11651717E-05
   0.24150   0.10872789E-05
   0.24250   0.10145936E-05
   0.24350   0.94664040E-06
   0.24450   0.88310810E-06
   0.24550   0.82376710E-06
   0.24650   0.76842480E-06
   0.24750   0.71690374E-06
   0.24850   0.66903152E-06
   0.24950   0.62463704E-06
   0.25050   0.58354971E-06
   0.25150   0.54560002E-06
   0.25250   0.51062028E-06
   0.25350   0.47844566E-06
   0.25450   0.44891527E-06
   0.25550   0.42187278E-06
   0.25650   0.39716758E-06
   0.25750   0.37465526E-06
   0.25850   0.35419876E-06
   0.25950   0.33566872E-06
   0.26050   0.31894439E-06
   0.26150   0.30391385E-06
   0.26250   0.29047445E-06
   0.26350   0.27853292E-06
   0.26450   0.26800529E-06
   0.26550   0.25881667E-06
   0.26650   0.25090094E-06
   0.26750   0.24420018E-06
   0.26850   0.23866414E-06
   0.26950   0.23424964E-06
   0.27050   0.23091980E-06
   0.27150   0.22864344E-06
   0.27250   0.22739442E-06
   0.27350   0.22715098E-06
   0.27450   0.22789510E-06
   0.27550   0.22961201E-06
   0.27650   0.23228965E-06
   0.27750   0.23591818E-06
   0.27850   0.24048953E-06
   0.27950   0.24599703E-06
   0.28050   0.25243486E-06
   0.28150   0.25979756E-06
   0.28250   0.26807942E-06
   0.28350   0.27727344E-06
   0.28450   0.28737051E-06
   0.28550   0.29835766E-06
   0.28650   0.31021642E-06
   0.28750   0.32292036E-06
   0.28850   0.33643218E-06
   0.28950   0.35069999E-06
   0.29050   0.36565206E-06
   0.29150   0.38118904E-06
   0.29250   0.39717060E-06
   0.29350   0.41338936E-06
   0.29450   0.42951402E-06
   0.29550   0.44494823E-06
   0.29650   0.45842364E-06
   0.29750   0.46658232E-06
   0.29850   0.45875603E-06
   0.29950   0.42110887E-06
   0.30050   0.38019019E-06
   0.30150   0.34935837E-06
   0.30250   0.32570549E-06
   0.30350   0.30664339E-06
   0.30450   0.29064654E-06
   0.30550   0.27679550E-06
   0.30650   0.26450843E-06
   0.30750   0.25340162E-06
   0.30850   0.24321454E-06
   0.30950   0.23376673E-06
   0.31050   0.22493161E-06
   0.31150   0.21661988E-06
   0.31250   0.20876838E-06
   0.31350   0.20133263E-06
   0.31450   0.19428145E-06
   0.31550   0.18759324E-06
   0.31650   0.18125328E-06
   0.31750   0.17525171E-06
   0.31850   0.16958228E-06
   0.31950   0.16424120E-06
   0.32050   0.15922670E-06
   0.32150   0.15453840E-06
   0.32250   0.15017726E-06
   0.32350   0.14614542E-06
   0.32450   0.14244632E-06
   0.32550   0.13908492E-06
   0.32650   0.13606797E-06
   0.32750   0.13340454E-06
   0.32850   0.13110653E-06
   0.32950   0.12918936E-06
   0.33050   0.12767283E-06
   0.33150   0.12658209E-06
   0.33250   0.12594876E-06
   0.33350   0.12581212E-06
   0.33450   0.12622037E-06
   0.33550   0.12723157E-06
   0.33650   0.12891371E-06
   0.33750   0.13134299E-06
   0.33850   0.13459791E-06
   0.33950   0.13874538E-06
   0.34050   0.14381175E-06
   0.34150   0.14972784E-06
   0.34250   0.15623445E-06
   0.34350   0.16274214E-06
   0.34450   0.16817748E-06
   0.34550   0.17094182E-06
   0.34650   0.16922007E-06
   0.34750   0.16178892E-06
   0.34850   0.14894270E-06
   0.34950   0.13264483E-06
   0.35050   0.11557064E-06
   0.35150   0.99892468E-07
   0.35250   0.86738545E-07
   0.35350   0.76352784E-07
   0.35450   0.68491545E-07
   0.35550   0.62740767E-07
   0.35650   0.58687025E-07
   0.35750   0.55984000E-07
   0.35850   0.54362861E-07
   0.35950   0.53611224E-07
   0.36050   0.53503829E-07
   0.36150   0.53519425E-07
   0.36250   0.51613991E-07
   0.36350   0.45717940E-07
   0.36450   0.40084107E-07
   0.36550   0.36057177E-07
   0.36650   0.33198834E-07
   0.36750   0.31123079E-07
   0.36850   0.29584251E-07
   0.36950   0.28426522E-07
   0.37050   0.27548156E-07
   0.37150   0.26880619E-07
   0.37250   0.26376224E-07
   0.37350   0.26000448E-07
   0.37450   0.25726839E-07
   0.37550   0.25533364E-07
   0.37650   0.25399558E-07
   0.37750   0.25304228E-07
   0.37850   0.25223773E-07
   0.37950   0.25130444E-07
   0.38050   0.24976856E-07
   0.38150   0.24516222E-07
   0.38250   0.22595003E-07
   0.38350   0.19291253E-07
   0.38450   0.16151557E-07
   0.38550   0.13781847E-07
   0.38650   0.12332434E-07
   0.38750   0.11677177E-07
   0.38850   0.11533966E-07
   0.38950   0.11618375E-07
   0.39050   0.11734598E-07
   0.39150   0.11783708E-07
   0.39250   0.11733310E-07
   0.39350   0.11585792E-07
   0.39450   0.11357482E-07
   0.39550   0.11067820E-07
   0.39650   0.10734672E-07
   0.39750   0.10372817E-07
   0.39850   0.99938147E-08
   0.39950   0.96064001E-08
   0.40050   0.92170085E-08
   0.40150   0.88302610E-08
   0.40250   0.84493728E-08
   0.40350   0.80764577E-08
   0.40450   0.77127567E-08
   0.40550   0.73587727E-08
   0.40650   0.70143291E-08
   0.40750   0.66785177E-08
   0.40850   0.63494792E-08
   0.40950   0.60238632E-08
   0.41050   0.56955267E-08
   0.41150   0.53521623E-08
   0.41250   0.49651692E-08
   0.41350   0.44567114E-08
   0.41450   0.37059895E-08
   0.41550   0.29768727E-08
   0.41650   0.24632623E-08
   0.41750   0.20947120E-08
   0.41850   0.18164505E-08
   0.41950   0.15985170E-08
   0.42050   0.14234661E-08
   0.42150   0.12803489E-08
   0.42250   0.11618717E-08
   0.42350   0.10629496E-08
   0.42450   0.97991271E-09
   0.42550   0.91004088E-09
   0.42650   0.85127666E-09
   0.42750   0.80204049E-09
   0.42850   0.76110768E-09
   0.42950   0.72752371E-09
   0.43050   0.70054518E-09
   0.43150   0.67959771E-09
   0.43250   0.66424538E-09
   0.43350   0.65416883E-09
   0.43450   0.64914990E-09
   0.43550   0.64906014E-09
   0.43650   0.65385358E-09
   0.43750   0.66356176E-09
   0.43850   0.67829126E-09
   0.43950   0.69822165E-09
   0.44050   0.72360468E-09
   0.44150   0.75476175E-09
   0.44250   0.79207851E-09
   0.44350   0.83599311E-09
   0.44450   0.88697266E-09
   0.44550   0.94546981E-09
   0.44650   0.10118477E-08
   0.44750   0.10862552E-08
   0.44850   0.11684312E-08
   0.44950   0.12574148E-08
   0.45050   0.13511505E-08
   0.45150   0.14460195E-08
   0.45250   0.15364178E-08
   0.45350   0.16146419E-08
   0.45450   0.16714827E-08
   0.45550   0.16978695E-08
   0.45650   0.16874486E-08
   0.45750   0.16391568E-08
   0.45850   0.15583240E-08
   0.45950   0.14554088E-08
   0.46050   0.13429626E-08
   0.46150   0.12324609E-08
   0.46250   0.11323564E-08
   0.46350   0.10476408E-08
   0.46450   0.98041153E-09
   0.46550   0.93079472E-09
   0.46650   0.89779734E-09
   0.46750   0.87992896E-09
   0.46850   0.87559021E-09
   0.46950   0.88328395E-09
   0.47050   0.90171226E-09
   0.47150   0.92980751E-09
   0.47250   0.96672903E-09
   0.47350   0.10118444E-08
   0.47450   0.10647062E-08
   0.47550   0.11250295E-08
   0.47650   0.11926717E-08
   0.47750   0.12676177E-08
   0.47850   0.13499676E-08
   0.47950   0.14399297E-08
   0.48050   0.15378169E-08
   0.48150   0.16440460E-08
   0.48250   0.17591423E-08
   0.48350   0.18837454E-08
   0.48450   0.20186222E-08
   0.48550   0.21646807E-08
   0.48650   0.23229918E-08
   0.48750   0.24948155E-08
   0.48850   0.26816336E-08
   0.48950   0.28851894E-08
   0.49050   0.31075300E-08
   0.49150   0.33510419E-08
   0.49250   0.36184418E-08
   0.49350   0.39126098E-08
   0.49450   0.42358725E-08
   0.49550   0.45872484E-08
   0.49650   0.49508619E-08
   0.49750   0.52387414E-08
   0.49850   0.51116373E-08
   0.49950   0.45462740E-08
   0.50050   0.40323207E-08
   0.50150   0.36387500E-08
   0.50250   0.33350485E-08
   0.50350   0.30966063E-08
   0.50450   0.29079732E-08
   0.50550   0.27597353E-08
   0.50650   0.26464164E-08
   0.50750   0.25653411E-08
   0.50850   0.25160902E-08
   0.50950   0.25003344E-08
   0.51050   0.25219442E-08
   0.51150   0.25873532E-08
   0.51250   0.27061788E-08
   0.51350   0.28921510E-08
   0.51450   0.31644161E-08
   0.51550   0.35493271E-08
   0.51650   0.40829167E-08
   0.51750   0.48145372E-08
   0.51850   0.58131961E-08
   0.51950   0.71816353E-08
   0.52050   0.90792094E-08
   0.52150   0.11577654E-07
   0.52250   0.14610632E-07
   0.52350   0.18320687E-07
   0.52450   0.22791431E-07
   0.52550   0.27995588E-07
   0.52650   0.33810370E-07
   0.52750   0.40041250E-07
   0.52850   0.46463359E-07
   0.52950   0.52874135E-07
   0.53050   0.59142543E-07
   0.53150   0.65240698E-07
   0.53250   0.71232002E-07
   0.53350   0.77086462E-07
   0.53450   0.82859096E-07
   0.53550   0.89079371E-07
   0.53650   0.96210933E-07
   0.53750   0.10471294E-06
   0.53850   0.11512962E-06
   0.53950   0.12814908E-06
   0.54050   0.14467804E-06
   0.54150   0.16595200E-06
   0.54250   0.19370279E-06
   0.54350   0.23042006E-06
   0.54450   0.27976964E-06
   0.54550   0.34728137E-06
   0.54650   0.44151312E-06
   0.54750   0.57608474E-06
   0.54850   0.77335977E-06
   0.54950   0.10713862E-05
   0.55050   0.15376029E-05
   0.55150   0.22974284E-05
   0.55250   0.35979183E-05
   0.55350   0.59612539E-05
   0.55450   0.10593673E-04
   0.55550   0.20624751E-04
   0.55650   0.45570043E-04
   0.55750   0.12172993E-03
   0.55850   0.42076074E-03
   0.55950   0.14077225E-02
   0.56050   0.11213864E-02
   0.56150   0.62717043E-03
   0.56250   0.47026848E-03
   0.56350   0.44125508E-03
   0.56450   0.48762161E-03
   0.56550   0.61587262E-03
   0.56650   0.87845250E-03
   0.56750   0.14146300E-02
   0.56850   0.25953362E-02
   0.56950   0.55207601E-02
   0.57050   0.13912131E-01
   0.57150   0.41030291E-01
   0.57250   0.11190365E+00
   0.57350   0.16712840E+00
   0.57450   0.16452394E+00
   0.57550   0.15390117E+00
   0.57650   0.13696237E+00
   0.57750   0.11258551E+00
   0.57850   0.83396479E-01
   0.57950   0.49211260E-01
   0.58050   0.23027848E-01
   0.58150   0.94427550E-02
   0.58250   0.55163661E-02
   0.58350   0.38648387E-02
   0.58450   0.32602076E-02
   0.58550   0.35465281E-02
   0.58650   0.54662367E-02
   0.58750   0.16952038E-01
   0.58850   0.30334232E-01
   0.58950   0.29219179E-02
   0.59050   0.17963175E-02
   0.59150   0.57073911E-02
   0.59250   0.97600989E-01
   0.59350   0.44008940E-02
   0.59450   0.50587337E-02
   0.59550   0.62713041E-02
   0.59650   0.51123775E-02
   0.59750   0.32790639E-02
   0.59850   0.21927825E-02
   0.59950   0.15719217E-02
   0.60050   0.14426201E-02
   0.60150   0.15444364E-02
   0.60250   0.16815158E-02
   0.60350   0.18024819E-02
   0.60450   0.18718360E-02
   0.60550   0.19440785E-02
   0.60650   0.19842794E-02
   0.60750   0.19152072E-02
   0.60850   0.18842564E-02
   0.60950   0.18778427E-02
   0.61050   0.17923224E-02
   0.61150   0.16687927E-02
   0.61250   0.15705746E-02
   0.61350   0.14775088E-02
   0.61450   0.13656616E-02
   0.61550   0.12581054E-02
   0.61650   0.11761382E-02
   0.61750   0.10961215E-02
   0.61850   0.96495531E-03
   0.61950   0.85563824E-03
   0.62050   0.82054909E-03
   0.62150   0.79473481E-03
   0.62250   0.70208928E-03
   0.62350   0.55892277E-03
   0.62450   0.42704807E-03
   0.62550   0.33440421E-03
   0.62650   0.27897564E-03
   0.62750   0.25124013E-03
   0.62850   0.24426752E-03
   0.62950   0.25710094E-03
   0.63050   0.29954786E-03
   0.63150   0.41137528E-03
   0.63250   0.69820700E-03
   0.63350   0.85025077E-03
   0.63450   0.60920010E-03
   0.63550   0.49664208E-03
   0.63650   0.46431235E-03
   0.63750   0.46069318E-03
   0.63850   0.46784291E-03
   0.63950   0.47877524E-03
   0.64050   0.48998138E-03
   0.64150   0.49937970E-03
   0.64250   0.50605927E-03
   0.64350   0.51033479E-03
   0.64450   0.51342486E-03
   0.64550   0.51676139E-03
   0.64650   0.52135927E-03
   0.64750   0.52757422E-03
   0.64850   0.53525186E-03
   0.64950   0.54407620E-03
   0.65050   0.55389816E-03
   0.65150   0.56487479E-03
   0.65250   0.57736557E-03
   0.65350   0.59167767E-03
   0.65450   0.60782919E-03
   0.65550   0.62545959E-03
   0.65650   0.64392114E-03
   0.65750   0.66250208E-03
   0.65850   0.68067835E-03
   0.65950   0.69827546E-03
   0.66050   0.71546360E-03
   0.66150   0.73259883E-03
   0.66250   0.75000525E-03
   0.66350   0.76781027E-03
   0.66450   0.78589941E-03
   0.66550   0.80399099E-03
   0.66650   0.82177407E-03
   0.66750   0.83903078E-03
   0.66850   0.85567875E-03
   0.66950   0.87171717E-03
   0.67050   0.88711653E-03
   0.67150   0.90171536E-03
   0.67250   0.91517757E-03
   0.67350   0.92702830E-03
   0.67450   0.93674962E-03
   0.67550   0.94389642E-03
   0.67650   0.94818918E-03
   0.67750   0.94955519E-03
   0.67850   0.94811531E-03
   0.67950   0.94413402E-03
   0.68050   0.93796139E-03
   0.68150   0.92998985E-03
   0.68250   0.92062983E-03
   0.68350   0.91027952E-03
   0.68450   0.89917093E-03
   0.68550   0.88654639E-03
   0.68650   0.86594134E-03
   0.68750   0.81257697E-03
   0.68850   0.73411793E-03
   0.68950   0.66423410E-03
   0.69050   0.60651946E-03
   0.69150   0.55865047E-03
   0.69250   0.51856256E-03
   0.69350   0.48475459E-03
   0.69450   0.45612553E-03
   0.69550   0.43184203E-03
   0.69650   0.41125741E-03
   0.69750   0.39386519E-03
   0.69850   0.37927448E-03
   0.69950   0.36719925E-03
   0.70050   0.35745592E-03
   0.70150   0.34995846E-03
   0.70250   0.34466534E-03
   0.70350   0.34122332E-03
   0.70450   0.33660146E-03
   0.70550   0.31509125E-03
   0.70650   0.27189168E-03
   0.70750   0.23171681E-03
   0.70850   0.19952664E-03
   0.70950   0.17397718E-03
   0.71050   0.15365620E-03
   0.71150   0.13754641E-03
   0.71250   0.12492819E-03
   0.71350   0.11527724E-03
   0.71450   0.10819600E-03
   0.71550   0.10337016E-03
   0.71650   0.10054087E-03
   0.71750   0.99486941E-04
   0.71850   0.10001336E-03
   0.71950   0.10194397E-03
   0.72050   0.10511706E-03
   0.72150   0.10938282E-03
   0.72250   0.11460207E-03
   0.72350   0.12064604E-03
   0.72450   0.12739656E-03
   0.72550   0.13474682E-03
   0.72650   0.14260221E-03
   0.72750   0.15088131E-03
   0.72850   0.15951639E-03
   0.72950   0.16845170E-03
   0.73050   0.17763001E-03
   0.73150   0.18690831E-03
   0.73250   0.19568641E-03
   0.73350   0.20360359E-03
   0.73450   0.21149979E-03
   0.73550   0.21960874E-03
   0.73650   0.22791565E-03
   0.73750   0.23639495E-03
   0.73850   0.24503286E-03
   0.73950   0.25382612E-03
   0.74050   0.26277904E-03
   0.74150   0.27190117E-03
   0.74250   0.28120555E-03
   0.74350   0.29070742E-03
   0.74450   0.30042327E-03
   0.74550   0.31037017E-03
   0.74650   0.32056554E-03
   0.74750   0.33102697E-03
   0.74850   0.34177257E-03
   0.74950   0.35282131E-03
   0.75050   0.36419387E-03
   0.75150   0.37591343E-03
   0.75250   0.38800683E-03
   0.75350   0.40050599E-03
   0.75450   0.41344922E-03
   0.75550   0.42688299E-03
   0.75650   0.44086378E-03
   0.75750   0.45546002E-03
   0.75850   0.47075443E-03
   0.75950   0.48684666E-03
   0.76050   0.50385616E-03
   0.76150   0.52192592E-03
   0.76250   0.54122624E-03
   0.76350   0.56196016E-03
   0.76450   0.58436889E-03
   0.76550   0.60873927E-03
   0.76650   0.63541229E-03
   0.76750   0.66479336E-03
   0.76850   0.69736509E-03
   0.76950   0.73370204E-03
   0.77050   0.77448849E-03
   0.77150   0.82053983E-03
   0.77250   0.87282684E-03
   0.77350   0.93250524E-03
   0.77450   0.10009516E-02
   0.77550   0.10798121E-02
   0.77650   0.11710761E-02
   0.77750   0.12771925E-02
   0.77850   0.14012195E-02
   0.77950   0.15467586E-02
   0.78050   0.17159828E-02
   0.78150   0.18947455E-02
   0.78250   0.20109985E-02
   0.78350   0.20750933E-02
   0.78450   0.21638481E-02
   0.78550   0.23015465E-02
   0.78650   0.27201797E-02
   0.78750   0.36536588E-02
   0.78850   0.28715408E-02
   0.78950   0.28919003E-02
   0.79050   0.30474204E-02
   0.79150   0.32918034E-02
   0.79250   0.36362715E-02
   0.79350   0.41170679E-02
   0.79450   0.50611277E-02
   0.79550   0.64576338E-02
   0.79650   0.66347034E-02
   0.79750   0.73942216E-02
   0.79850   0.10009089E-01
   0.79950   0.17246133E-01
   0.80050   0.30830126E-01
   0.80150   0.45151033E-01
   0.80250   0.36099147E-01
   0.80350   0.22069721E-01
   0.80450   0.33337254E-01
   0.80550   0.66120043E-01
   0.80650   0.23147333E+00
   0.80750   0.10996395E+00
   0.80850   0.10023405E+00
   0.80950   0.26239616E+00
   0.81050   0.16198741E+00
   0.81150   0.50356381E-01
   0.81250   0.46437681E-01
   0.81350   0.39928831E-01
   0.81450   0.40452696E-01
   0.81550   0.47332238E-01
   0.81650   0.40938288E-01
   0.81750   0.31288285E-01
   0.81850   0.24738720E-01
   0.81950   0.20070057E-01
   0.82050   0.16771363E-01
   0.82150   0.14844731E-01
   0.82250   0.13681132E-01
   0.82350   0.12883798E-01
   0.82450   0.12593539E-01
   0.82550   0.12707977E-01
   0.82650   0.12834337E-01
   0.82750   0.12724010E-01
   0.82850   0.12214114E-01
   0.82950   0.11637146E-01
   0.83050   0.11315729E-01
   0.83150   0.11305891E-01
   0.83250   0.11502005E-01
   0.83350   0.11711395E-01
   0.83450   0.11761766E-01
   0.83550   0.11633742E-01
   0.83650   0.11445458E-01
   0.83750   0.11327833E-01
   0.83850   0.11362637E-01
   0.83950   0.11592921E-01
   0.84050   0.12043093E-01
   0.84150   0.12730080E-01
   0.84250   0.13642767E-01
   0.84350   0.14536071E-01
   0.84450   0.15167885E-01
   0.84550   0.15478549E-01
   0.84650   0.15207101E-01
   0.84750   0.14406389E-01
   0.84850   0.13458374E-01
   0.84950   0.12791771E-01
   0.85050   0.12639322E-01
   0.85150   0.13181864E-01
   0.85250   0.14672493E-01
   0.85350   0.17349964E-01
   0.85450   0.20967485E-01
   0.85550   0.24401939E-01
   0.85650   0.26720505E-01
   0.85750   0.28051384E-01
   0.85850   0.28482860E-01
   0.85950   0.27654011E-01
   0.86050   0.25668839E-01
   0.86150   0.23333317E-01
   0.86250   0.21407166E-01
   0.86350   0.20218501E-01
   0.86450   0.19791076E-01
   0.86550   0.20001110E-01
   0.86650   0.20617522E-01
   0.86750   0.21301866E-01
   0.86850   0.21698657E-01
   0.86950   0.21646041E-01
   0.87050   0.21288287E-01
   0.87150   0.20917434E-01
   0.87250   0.20744976E-01
   0.87350   0.20825630E-01
   0.87450   0.21105032E-01
   0.87550   0.21493061E-01
   0.87650   0.21917351E-01
   0.87750   0.22343935E-01
   0.87850   0.22765122E-01
   0.87950   0.23169829E-01
   0.88050   0.23519741E-01
   0.88150   0.23747819E-01
   0.88250   0.23781285E-01
   0.88350   0.23576386E-01
   0.88450   0.23142681E-01
   0.88550   0.22540700E-01
   0.88650   0.21857360E-01
   0.88750   0.21178288E-01
   0.88850   0.20571860E-01
   0.88950   0.20086536E-01
   0.89050   0.19755222E-01
   0.89150   0.19600770E-01
   0.89250   0.19639870E-01
   0.89350   0.19884678E-01
   0.89450   0.20342050E-01
   0.89550   0.21009950E-01
   0.89650   0.21870652E-01
   0.89750   0.22881979E-01
   0.89850   0.23970513E-01
   0.89950   0.25032237E-01
   0.90050   0.25947578E-01
   0.90150   0.26641969E-01
   0.90250   0.27063455E-01
   0.90350   0.27270945E-01
   0.90450   0.27386434E-01
   0.90550   0.27477471E-01
   0.90650   0.27596898E-01
   0.90750   0.27781097E-01
   0.90850   0.28048432E-01
   0.90950   0.28403055E-01
   0.91050   0.28841607E-01
   0.91150   0.29360263E-01
   0.91250   0.29960088E-01
   0.91350   0.30649446E-01
   0.91450   0.31443395E-01
   0.91550   0.32361016E-01
   0.91650   0.33421788E-01
   0.91750   0.34641802E-01
   0.91850   0.36030427E-01
   0.91950   0.37588432E-01
   0.92050   0.39309423E-01
   0.92150   0.41186400E-01
   0.92250   0.43223657E-01
   0.92350   0.45452010E-01
   0.92450   0.47946267E-01
   0.92550   0.50853033E-01
   0.92650   0.54465625E-01
   0.92750   0.59515648E-01
   0.92850   0.68860084E-01
   0.92950   0.98382995E-01
   0.93050   0.12096463E+00
   0.93150   0.14132679E+00
   0.93250   0.27655610E+00
   0.93350   0.19452046E+00
   0.93450   0.26925051E+00
   0.93550   0.32337618E+00
   0.93650   0.29392701E+00
   0.93750   0.25857937E+00
   0.93850   0.31547391E+00
   0.93950   0.30119526E+00
   0.94050   0.27989388E+00
   0.94150   0.32242140E+00
   0.94250   0.35886043E+00
   0.94350   0.34954140E+00
   0.94450   0.37207118E+00
   0.94550   0.43756384E+00
   0.94650   0.51883686E+00
   0.94750   0.60884184E+00
   0.94850   0.65553439E+00
   0.94950   0.61501575E+00
   0.95050   0.56394511E+00
   0.95150   0.51157767E+00
   0.95250   0.49198988E+00
   0.95350   0.51133269E+00
   0.95450   0.48809314E+00
   0.95550   0.45828569E+00
   0.95650   0.43282375E+00
   0.95750   0.38756061E+00
   0.95850   0.33315659E+00
   0.95950   0.28950578E+00
   0.96050   0.26303488E+00
   0.96150   0.25493938E+00
   0.96250   0.25965384E+00
   0.96350   0.26443812E+00
   0.96450   0.25809610E+00
   0.96550   0.24267310E+00
   0.96650   0.22505902E+00
   0.96750   0.20770800E+00
   0.96850   0.19167206E+00
   0.96950   0.17670047E+00
   0.97050   0.16038504E+00
   0.97150   0.14332891E+00
   0.97250   0.13024649E+00
   0.97350   0.12310864E+00
   0.97450   0.12113044E+00
   0.97550   0.12342300E+00
   0.97650   0.12959291E+00
   0.97750   0.13943960E+00
   0.97850   0.15161909E+00
   0.97950   0.16241793E+00
   0.98050   0.16921590E+00
   0.98150   0.17413795E+00
   0.98250   0.18027946E+00
   0.98350   0.18860468E+00
   0.98450   0.19841225E+00
   0.98550   0.20829873E+00
   0.98650   0.21668956E+00
   0.98750   0.22219904E+00
   0.98850   0.22392066E+00
   0.98950   0.22220047E+00
   0.99050   0.21863557E+00
   0.99150   0.21387573E+00
   0.99250   0.20833714E+00
   0.99350   0.20234700E+00
   0.99450   0.19615559E+00
   0.99550   0.18996559E+00
   0.99650   0.18457194E+00
   0.99750   0.18126941E+00
   0.99850   0.18118887E+00
   0.99950   0.18497881E+00
