# Transmission, k-averaged
# Date: 2021-05-13
#   E [eV]           T [G0]
   0.00050   0.11450595E+00
   0.00150   0.15598917E+00
   0.00250   0.64951070E-01
   0.00350   0.84149458E-01
   0.00450   0.22599522E-01
   0.00550   0.78823604E-02
   0.00650   0.16804440E-01
   0.00750   0.55237543E-02
   0.00850   0.34939260E-02
   0.00950   0.68634562E-01
   0.01050   0.26262847E-02
   0.01150   0.24327883E-02
   0.01250   0.28315408E-01
   0.01350   0.49505807E-02
   0.01450   0.18898676E-02
   0.01550   0.28602404E-02
   0.01650   0.27538899E-01
   0.01750   0.84043881E-02
   0.01850   0.24868422E-02
   0.01950   0.23062909E-02
   0.02050   0.51489118E-02
   0.02150   0.56622848E-01
   0.02250   0.10222828E-01
   0.02350   0.33732734E-02
   0.02450   0.27010408E-02
   0.02550   0.40049804E-02
   0.02650   0.13564274E-01
   0.02750   0.68555504E-01
   0.02850   0.90082176E-02
   0.02950   0.39046651E-02
   0.03050   0.31865046E-02
   0.03150   0.41922512E-02
   0.03250   0.99446466E-02
   0.03350   0.64140603E-01
   0.03450   0.20486811E-01
   0.03550   0.59094150E-02
   0.03650   0.35639699E-02
   0.03750   0.33619970E-02
   0.03850   0.48091891E-02
   0.03950   0.12379200E-01
   0.04050   0.68017125E-01
   0.04150   0.15009529E-01
   0.04250   0.48204302E-02
   0.04350   0.29717239E-02
   0.04450   0.28419755E-02
   0.04550   0.39650332E-02
   0.04650   0.69248821E-02
   0.04750   0.90313610E-02
   0.04850   0.53314292E-02
   0.04950   0.28414468E-02
   0.05050   0.18871103E-02
   0.05150   0.15691881E-02
   0.05250   0.15888909E-02
   0.05350   0.18954648E-02
   0.05450   0.24842191E-02
   0.05550   0.30679111E-02
   0.05650   0.30596361E-02
   0.05750   0.26158360E-02
   0.05850   0.22596603E-02
   0.05950   0.21459400E-02
   0.06050   0.22732122E-02
   0.06150   0.26366881E-02
   0.06250   0.32093306E-02
   0.06350   0.38407750E-02
   0.06450   0.42431010E-02
   0.06550   0.42733336E-02
   0.06650   0.40982664E-02
   0.06750   0.39424845E-02
   0.06850   0.39166878E-02
   0.06950   0.40416932E-02
   0.07050   0.42900546E-02
   0.07150   0.45971158E-02
   0.07250   0.48703896E-02
   0.07350   0.50269375E-02
   0.07450   0.50428598E-02
   0.07550   0.49615316E-02
   0.07650   0.48531289E-02
   0.07750   0.47735176E-02
   0.07850   0.47501279E-02
   0.07950   0.47855098E-02
   0.08050   0.48647481E-02
   0.08150   0.49625188E-02
   0.08250   0.50510317E-02
   0.08350   0.51092724E-02
   0.08450   0.51304032E-02
   0.08550   0.51231370E-02
   0.08650   0.51065600E-02
   0.08750   0.51022656E-02
   0.08850   0.51279208E-02
   0.08950   0.51929699E-02
   0.09050   0.52911565E-02
   0.09150   0.53604348E-02
   0.09250   0.51896577E-02
   0.09350   0.48205839E-02
   0.09450   0.44596666E-02
   0.09550   0.41397950E-02
   0.09650   0.38593984E-02
   0.09750   0.36148254E-02
   0.09850   0.34023500E-02
   0.09950   0.32178622E-02
   0.10050   0.30568670E-02
   0.10150   0.29147712E-02
   0.10250   0.27872622E-02
   0.10350   0.26706492E-02
   0.10450   0.25620994E-02
   0.10550   0.24597261E-02
   0.10650   0.23625244E-02
   0.10750   0.22701805E-02
   0.10850   0.21828136E-02
   0.10950   0.21007117E-02
   0.11050   0.20241176E-02
   0.11150   0.19530922E-02
   0.11250   0.18874586E-02
   0.11350   0.18268143E-02
   0.11450   0.17705888E-02
   0.11550   0.17181265E-02
   0.11650   0.16687736E-02
   0.11750   0.16219540E-02
   0.11850   0.15772230E-02
   0.11950   0.15342921E-02
   0.12050   0.14930257E-02
   0.12150   0.14534115E-02
   0.12250   0.14155176E-02
   0.12350   0.13794433E-02
   0.12450   0.13452753E-02
   0.12550   0.13130545E-02
   0.12650   0.12827583E-02
   0.12750   0.12542973E-02
   0.12850   0.12275248E-02
   0.12950   0.12022547E-02
   0.13050   0.11782852E-02
   0.13150   0.11554224E-02
   0.13250   0.11335008E-02
   0.13350   0.11123973E-02
   0.13450   0.10920381E-02
   0.13550   0.10723966E-02
   0.13650   0.10534850E-02
   0.13750   0.10353401E-02
   0.13850   0.10180086E-02
   0.13950   0.10015311E-02
   0.14050   0.98593067E-03
   0.14150   0.97120472E-03
   0.14250   0.95732242E-03
   0.14350   0.94422675E-03
   0.14450   0.93184045E-03
   0.14550   0.92007552E-03
   0.14650   0.90884307E-03
   0.14750   0.89806388E-03
   0.14850   0.88767678E-03
   0.14950   0.87764440E-03
   0.15050   0.86795574E-03
   0.15150   0.85862464E-03
   0.15250   0.84968610E-03
   0.15350   0.84118953E-03
   0.15450   0.83319173E-03
   0.15550   0.82574988E-03
   0.15650   0.81891584E-03
   0.15750   0.81273273E-03
   0.15850   0.80723414E-03
   0.15950   0.80244592E-03
   0.16050   0.79839054E-03
   0.16150   0.79509272E-03
   0.16250   0.79258683E-03
   0.16350   0.79092337E-03
   0.16450   0.79017482E-03
   0.16550   0.79043844E-03
   0.16650   0.79183548E-03
   0.16750   0.79450483E-03
   0.16850   0.79858734E-03
   0.16950   0.80419530E-03
   0.17050   0.81134989E-03
   0.17150   0.81984373E-03
   0.17250   0.82889403E-03
   0.17350   0.83609833E-03
   0.17450   0.83361153E-03
   0.17550   0.79692167E-03
   0.17650   0.72136277E-03
   0.17750   0.65880269E-03
   0.17850   0.61584130E-03
   0.17950   0.58635703E-03
   0.18050   0.56630588E-03
   0.18150   0.55329746E-03
   0.18250   0.54584653E-03
   0.18350   0.54297328E-03
   0.18450   0.54399308E-03
   0.18550   0.54839900E-03
   0.18650   0.55579160E-03
   0.18750   0.56583300E-03
   0.18850   0.57821610E-03
   0.18950   0.59264142E-03
   0.19050   0.60880010E-03
   0.19150   0.62635995E-03
   0.19250   0.64495503E-03
   0.19350   0.66417747E-03
   0.19450   0.68357197E-03
   0.19550   0.70263282E-03
   0.19650   0.72080415E-03
   0.19750   0.73748286E-03
   0.19850   0.75202569E-03
   0.19950   0.76376018E-03
   0.20050   0.77199982E-03
   0.20150   0.77606394E-03
   0.20250   0.77530206E-03
   0.20350   0.76912198E-03
   0.20450   0.75702096E-03
   0.20550   0.73861738E-03
   0.20650   0.71368169E-03
   0.20750   0.68216195E-03
   0.20850   0.64420287E-03
   0.20950   0.60015434E-03
   0.21050   0.55056839E-03
   0.21150   0.49618486E-03
   0.21250   0.43790662E-03
   0.21350   0.37677368E-03
   0.21450   0.31395894E-03
   0.21550   0.25089926E-03
   0.21650   0.19027764E-03
   0.21750   0.14233230E-03
   0.21850   0.12521149E-03
   0.21950   0.12594819E-03
   0.22050   0.13223973E-03
   0.22150   0.14116305E-03
   0.22250   0.15198498E-03
   0.22350   0.16452173E-03
   0.22450   0.17878351E-03
   0.22550   0.19487985E-03
   0.22650   0.21299531E-03
   0.22750   0.23339187E-03
   0.22850   0.25642768E-03
   0.22950   0.28259269E-03
   0.23050   0.31256780E-03
   0.23150   0.34731330E-03
   0.23250   0.38813631E-03
   0.23350   0.43609581E-03
   0.23450   0.48485422E-03
   0.23550   0.50886208E-03
   0.23650   0.51473884E-03
   0.23750   0.51737385E-03
   0.23850   0.51993853E-03
   0.23950   0.52290718E-03
   0.24050   0.52625779E-03
   0.24150   0.52987615E-03
   0.24250   0.53364201E-03
   0.24350   0.53744769E-03
   0.24450   0.54120040E-03
   0.24550   0.54482074E-03
   0.24650   0.54824050E-03
   0.24750   0.55140135E-03
   0.24850   0.55425311E-03
   0.24950   0.55675331E-03
   0.25050   0.55886642E-03
   0.25150   0.56056364E-03
   0.25250   0.56182285E-03
   0.25350   0.56262861E-03
   0.25450   0.56297198E-03
   0.25550   0.56285079E-03
   0.25650   0.56226936E-03
   0.25750   0.56123827E-03
   0.25850   0.55977423E-03
   0.25950   0.55789965E-03
   0.26050   0.55564166E-03
   0.26150   0.55303198E-03
   0.26250   0.55010553E-03
   0.26350   0.54689974E-03
   0.26450   0.54345361E-03
   0.26550   0.53980661E-03
   0.26650   0.53599779E-03
   0.26750   0.53206499E-03
   0.26850   0.52804378E-03
   0.26950   0.52396703E-03
   0.27050   0.51986449E-03
   0.27150   0.51576225E-03
   0.27250   0.51168277E-03
   0.27350   0.50764479E-03
   0.27450   0.50366356E-03
   0.27550   0.49975089E-03
   0.27650   0.49591583E-03
   0.27750   0.49216510E-03
   0.27850   0.48850325E-03
   0.27950   0.48493373E-03
   0.28050   0.48145893E-03
   0.28150   0.47808111E-03
   0.28250   0.47480265E-03
   0.28350   0.47162664E-03
   0.28450   0.46855723E-03
   0.28550   0.46560002E-03
   0.28650   0.46276214E-03
   0.28750   0.46005248E-03
   0.28850   0.45748151E-03
   0.28950   0.45506068E-03
   0.29050   0.45280121E-03
   0.29150   0.45071103E-03
   0.29250   0.44878869E-03
   0.29350   0.44700893E-03
   0.29450   0.44528765E-03
   0.29550   0.44338734E-03
   0.29650   0.44062067E-03
   0.29750   0.43472199E-03
   0.29850   0.41715588E-03
   0.29950   0.37421420E-03
   0.30050   0.32759385E-03
   0.30150   0.29083231E-03
   0.30250   0.26185228E-03
   0.30350   0.23828418E-03
   0.30450   0.21861440E-03
   0.30550   0.20187290E-03
   0.30650   0.18740840E-03
   0.30750   0.17476366E-03
   0.30850   0.16360549E-03
   0.30950   0.15368350E-03
   0.31050   0.14480470E-03
   0.31150   0.13681715E-03
   0.31250   0.12959920E-03
   0.31350   0.12305184E-03
   0.31450   0.11709357E-03
   0.31550   0.11165650E-03
   0.31650   0.10668358E-03
   0.31750   0.10212647E-03
   0.31850   0.97943936E-04
   0.31950   0.94100622E-04
   0.32050   0.90566085E-04
   0.32150   0.87314023E-04
   0.32250   0.84321684E-04
   0.32350   0.81569393E-04
   0.32450   0.79040175E-04
   0.32550   0.76719472E-04
   0.32650   0.74594900E-04
   0.32750   0.72656090E-04
   0.32850   0.70894603E-04
   0.32950   0.69303853E-04
   0.33050   0.67879097E-04
   0.33150   0.66617511E-04
   0.33250   0.65518288E-04
   0.33350   0.64582797E-04
   0.33450   0.63814870E-04
   0.33550   0.63221101E-04
   0.33650   0.62811298E-04
   0.33750   0.62598992E-04
   0.33850   0.62602048E-04
   0.33950   0.62843239E-04
   0.34050   0.63350846E-04
   0.34150   0.64158725E-04
   0.34250   0.65305663E-04
   0.34350   0.66832828E-04
   0.34450   0.68778005E-04
   0.34550   0.71164308E-04
   0.34650   0.73980984E-04
   0.34750   0.77155368E-04
   0.34850   0.80521451E-04
   0.34950   0.83802915E-04
   0.35050   0.86641914E-04
   0.35150   0.88694840E-04
   0.35250   0.89760782E-04
   0.35350   0.89848552E-04
   0.35450   0.89126690E-04
   0.35550   0.87819404E-04
   0.35650   0.86138381E-04
   0.35750   0.84259555E-04
   0.35850   0.82308550E-04
   0.35950   0.80335456E-04
   0.36050   0.78265970E-04
   0.36150   0.75775839E-04
   0.36250   0.72170988E-04
   0.36350   0.68422793E-04
   0.36450   0.65159926E-04
   0.36550   0.58314741E-04
   0.36650   0.45843895E-04
   0.36750   0.32624102E-04
   0.36850   0.23878461E-04
   0.36950   0.19706627E-04
   0.37050   0.18337527E-04
   0.37150   0.18464709E-04
   0.37250   0.19413386E-04
   0.37350   0.20879093E-04
   0.37450   0.22746386E-04
   0.37550   0.25000678E-04
   0.37650   0.27692451E-04
   0.37750   0.30930016E-04
   0.37850   0.34892157E-04
   0.37950   0.39858180E-04
   0.38050   0.46215664E-04
   0.38150   0.53887681E-04
   0.38250   0.58901114E-04
   0.38350   0.59019025E-04
   0.38450   0.57863279E-04
   0.38550   0.56694298E-04
   0.38650   0.55760229E-04
   0.38750   0.55112381E-04
   0.38850   0.54764172E-04
   0.38950   0.54727941E-04
   0.39050   0.55026674E-04
   0.39150   0.55701021E-04
   0.39250   0.56817658E-04
   0.39350   0.58483231E-04
   0.39450   0.60870094E-04
   0.39550   0.64267573E-04
   0.39650   0.69192676E-04
   0.39750   0.76651275E-04
   0.39850   0.88770641E-04
   0.39950   0.10902583E-03
   0.40050   0.98051802E-04
   0.40150   0.16209067E-04
   0.40250   0.37732876E-04
   0.40350   0.65899672E-04
   0.40450   0.10277103E-03
   0.40550   0.16594068E-03
   0.40650   0.28431567E-03
   0.40750   0.44167889E-03
   0.40850   0.47051156E-03
   0.40950   0.29762863E-03
   0.41050   0.15783844E-03
   0.41150   0.94068506E-04
   0.41250   0.61804261E-04
   0.41350   0.42264401E-04
   0.41450   0.34006636E-04
   0.41550   0.45772515E-04
   0.41650   0.19134607E-03
   0.41750   0.10625120E-03
   0.41850   0.14486047E-04
   0.41950   0.17737408E-04
   0.42050   0.25326821E-04
   0.42150   0.33325938E-04
   0.42250   0.10797576E-03
   0.42350   0.19165220E-02
   0.42450   0.21831316E-02
   0.42550   0.29200681E-02
   0.42650   0.34091994E-02
   0.42750   0.32686437E-02
   0.42850   0.28145949E-02
   0.42950   0.23621677E-02
   0.43050   0.19943344E-02
   0.43150   0.17508791E-02
   0.43250   0.16175791E-02
   0.43350   0.15309884E-02
   0.43450   0.14556679E-02
   0.43550   0.13952882E-02
   0.43650   0.13550835E-02
   0.43750   0.13282404E-02
   0.43850   0.13041117E-02
   0.43950   0.12769711E-02
   0.44050   0.12474970E-02
   0.44150   0.12187907E-02
   0.44250   0.11926634E-02
   0.44350   0.11688676E-02
   0.44450   0.11462061E-02
   0.44550   0.11237541E-02
   0.44650   0.11012725E-02
   0.44750   0.10789144E-02
   0.44850   0.10568105E-02
   0.44950   0.10349213E-02
   0.45050   0.10131394E-02
   0.45150   0.99144515E-03
   0.45250   0.96995733E-03
   0.45350   0.94885880E-03
   0.45450   0.92827604E-03
   0.45550   0.90820569E-03
   0.45650   0.88852848E-03
   0.45750   0.86908496E-03
   0.45850   0.84976375E-03
   0.45950   0.83055504E-03
   0.46050   0.81155077E-03
   0.46150   0.79290097E-03
   0.46250   0.77475252E-03
   0.46350   0.75719954E-03
   0.46450   0.74026175E-03
   0.46550   0.72389242E-03
   0.46650   0.70800714E-03
   0.46750   0.69251913E-03
   0.46850   0.67736878E-03
   0.46950   0.66253927E-03
   0.47050   0.64805622E-03
   0.47150   0.63397293E-03
   0.47250   0.62034989E-03
   0.47350   0.60723320E-03
   0.47450   0.59464044E-03
   0.47550   0.58255525E-03
   0.47650   0.57093141E-03
   0.47750   0.55970420E-03
   0.47850   0.54880424E-03
   0.47950   0.53817086E-03
   0.48050   0.52776141E-03
   0.48150   0.51755487E-03
   0.48250   0.50754909E-03
   0.48350   0.49775385E-03
   0.48450   0.48818102E-03
   0.48550   0.47883549E-03
   0.48650   0.46970791E-03
   0.48750   0.46077158E-03
   0.48850   0.45198321E-03
   0.48950   0.44328731E-03
   0.49050   0.43462298E-03
   0.49150   0.42593185E-03
   0.49250   0.41716662E-03
   0.49350   0.40830072E-03
   0.49450   0.39934288E-03
   0.49550   0.39037032E-03
   0.49650   0.38162983E-03
   0.49750   0.37390267E-03
   0.49850   0.36902761E-03
   0.49950   0.36578372E-03
   0.50050   0.36168809E-03
   0.50150   0.35736419E-03
   0.50250   0.35424414E-03
   0.50350   0.35481746E-03
   0.50450   0.36405004E-03
   0.50550   0.39196806E-03
   0.50650   0.45558024E-03
   0.50750   0.56557753E-03
   0.50850   0.68074587E-03
   0.50950   0.73274761E-03
   0.51050   0.72719448E-03
   0.51150   0.70168311E-03
   0.51250   0.67794370E-03
   0.51350   0.66330022E-03
   0.51450   0.65910711E-03
   0.51550   0.66517049E-03
   0.51650   0.68130490E-03
   0.51750   0.70780172E-03
   0.51850   0.74547360E-03
   0.51950   0.79456781E-03
   0.52050   0.84486051E-03
   0.52150   0.85471181E-03
   0.52250   0.83542586E-03
   0.52350   0.81743271E-03
   0.52450   0.80452533E-03
   0.52550   0.79561787E-03
   0.52650   0.78947470E-03
   0.52750   0.78519853E-03
   0.52850   0.78217511E-03
   0.52950   0.77990658E-03
   0.53050   0.77762688E-03
   0.53150   0.77291141E-03
   0.53250   0.75511017E-03
   0.53350   0.69375604E-03
   0.53450   0.60938846E-03
   0.53550   0.54265262E-03
   0.53650   0.49657142E-03
   0.53750   0.47033021E-03
   0.53850   0.46652934E-03
   0.53950   0.50011580E-03
   0.54050   0.58977754E-03
   0.54150   0.67058968E-03
   0.54250   0.66713803E-03
   0.54350   0.60978474E-03
   0.54450   0.54250250E-03
   0.54550   0.48242623E-03
   0.54650   0.43251764E-03
   0.54750   0.39159198E-03
   0.54850   0.35781166E-03
   0.54950   0.32958057E-03
   0.55050   0.30567296E-03
   0.55150   0.28517839E-03
   0.55250   0.26742305E-03
   0.55350   0.25190489E-03
   0.55450   0.23824573E-03
   0.55550   0.22615833E-03
   0.55650   0.21542370E-03
   0.55750   0.20587658E-03
   0.55850   0.19739743E-03
   0.55950   0.18991172E-03
   0.56050   0.18340049E-03
   0.56150   0.17793532E-03
   0.56250   0.17377763E-03
   0.56350   0.17166753E-03
   0.56450   0.17357398E-03
   0.56550   0.18164112E-03
   0.56650   0.17881514E-03
   0.56750   0.16231740E-03
   0.56850   0.15301899E-03
   0.56950   0.14851756E-03
   0.57050   0.14649764E-03
   0.57150   0.14692610E-03
   0.57250   0.15264458E-03
   0.57350   0.16665382E-03
   0.57450   0.58957777E-03
   0.57550   0.17545235E-03
   0.57650   0.16410308E-03
   0.57750   0.16610292E-03
   0.57850   0.17289325E-03
   0.57950   0.18209465E-03
   0.58050   0.18469886E-03
   0.58150   0.16938079E-03
   0.58250   0.16411774E-03
   0.58350   0.20127569E-03
   0.58450   0.34470990E-03
   0.58550   0.43882814E-03
   0.58650   0.23379100E-03
   0.58750   0.34085911E-01
   0.58850   0.21833871E-01
   0.58950   0.17171280E-01
   0.59050   0.12978538E-01
   0.59150   0.96427454E-02
   0.59250   0.87575940E-02
   0.59350   0.91649275E-02
   0.59450   0.69011361E-02
   0.59550   0.63593374E-02
   0.59650   0.54049990E-02
   0.59750   0.46653515E-02
   0.59850   0.53229122E-02
   0.59950   0.52633989E-02
   0.60050   0.47128098E-02
   0.60150   0.45907055E-02
   0.60250   0.43332619E-02
   0.60350   0.38034299E-02
   0.60450   0.34720453E-02
   0.60550   0.33716168E-02
   0.60650   0.32679469E-02
   0.60750   0.30949875E-02
   0.60850   0.29695171E-02
   0.60950   0.29294938E-02
   0.61050   0.29022428E-02
   0.61150   0.28218704E-02
   0.61250   0.27173122E-02
   0.61350   0.26568137E-02
   0.61450   0.26646950E-02
   0.61550   0.27093289E-02
   0.61650   0.27291661E-02
   0.61750   0.26529629E-02
   0.61850   0.23987179E-02
   0.61950   0.20956541E-02
   0.62050   0.18558828E-02
   0.62150   0.16617407E-02
   0.62250   0.14938018E-02
   0.62350   0.13445213E-02
   0.62450   0.12119274E-02
   0.62550   0.10975135E-02
   0.62650   0.10019044E-02
   0.62750   0.92391850E-03
   0.62850   0.86158369E-03
   0.62950   0.81325340E-03
   0.63050   0.77811867E-03
   0.63150   0.75604883E-03
   0.63250   0.74705511E-03
   0.63350   0.75074949E-03
   0.63450   0.76601922E-03
   0.63550   0.79096208E-03
   0.63650   0.82305708E-03
   0.63750   0.85952127E-03
   0.63850   0.89774502E-03
   0.63950   0.93563361E-03
   0.64050   0.97170856E-03
   0.64150   0.10049575E-02
   0.64250   0.10345627E-02
   0.64350   0.10596847E-02
   0.64450   0.10794176E-02
   0.64550   0.10929205E-02
   0.64650   0.10996362E-02
   0.64750   0.10994656E-02
   0.64850   0.10928067E-02
   0.64950   0.10804408E-02
   0.65050   0.10633343E-02
   0.65150   0.10424480E-02
   0.65250   0.10186202E-02
   0.65350   0.99254341E-03
   0.65450   0.96480624E-03
   0.65550   0.93595963E-03
   0.65650   0.90656633E-03
   0.65750   0.87721390E-03
   0.65850   0.84849179E-03
   0.65950   0.82095055E-03
   0.66050   0.79506310E-03
   0.66150   0.77120238E-03
   0.66250   0.74964034E-03
   0.66350   0.73056330E-03
   0.66450   0.71409589E-03
   0.66550   0.70032489E-03
   0.66650   0.68931823E-03
   0.66750   0.68113639E-03
   0.66850   0.67583710E-03
   0.66950   0.67347533E-03
   0.67050   0.67410193E-03
   0.67150   0.67776209E-03
   0.67250   0.68449753E-03
   0.67350   0.69435150E-03
   0.67450   0.70737873E-03
   0.67550   0.72366057E-03
   0.67650   0.74332504E-03
   0.67750   0.76657347E-03
   0.67850   0.79371466E-03
   0.67950   0.82520995E-03
   0.68050   0.86173392E-03
   0.68150   0.90425857E-03
   0.68250   0.95417036E-03
   0.68350   0.10134112E-02
   0.68450   0.10844942E-02
   0.68550   0.11692394E-02
   0.68650   0.12571368E-02
   0.68750   0.12757624E-02
   0.68850   0.12034596E-02
   0.68950   0.11263113E-02
   0.69050   0.10646902E-02
   0.69150   0.10188911E-02
   0.69250   0.98849682E-03
   0.69350   0.97593648E-03
   0.69450   0.99449162E-03
   0.69550   0.12076474E-02
   0.69650   0.30578540E-02
   0.69750   0.14857620E-02
   0.69850   0.94065507E-03
   0.69950   0.95619500E-03
   0.70050   0.10600988E-02
   0.70150   0.13676242E-02
   0.70250   0.47870893E-02
   0.70350   0.93290713E-02
   0.70450   0.73407115E-02
   0.70550   0.14075067E-01
   0.70650   0.20366289E-01
   0.70750   0.10817654E-01
   0.70850   0.11439197E-01
   0.70950   0.22131601E-01
   0.71050   0.30214710E-01
   0.71150   0.18529594E-01
   0.71250   0.11676336E-01
   0.71350   0.90858322E-02
   0.71450   0.53474633E-02
   0.71550   0.43300986E-02
   0.71650   0.43359990E-02
   0.71750   0.46925205E-02
   0.71850   0.49898233E-02
   0.71950   0.50929729E-02
   0.72050   0.52357875E-02
   0.72150   0.54819440E-02
   0.72250   0.56362557E-02
   0.72350   0.55326396E-02
   0.72450   0.52887211E-02
   0.72550   0.50510559E-02
   0.72650   0.48493450E-02
   0.72750   0.46584229E-02
   0.72850   0.44506178E-02
   0.72950   0.42110751E-02
   0.73050   0.39391648E-02
   0.73150   0.36514881E-02
   0.73250   0.33800409E-02
   0.73350   0.31405624E-02
   0.73450   0.29306752E-02
   0.73550   0.27518799E-02
   0.73650   0.26000750E-02
   0.73750   0.24690365E-02
   0.73850   0.23552065E-02
   0.73950   0.22595655E-02
   0.74050   0.21860574E-02
   0.74150   0.21384186E-02
   0.74250   0.21176855E-02
   0.74350   0.21212462E-02
   0.74450   0.21434063E-02
   0.74550   0.21772271E-02
   0.74650   0.22169030E-02
   0.74750   0.22594202E-02
   0.74850   0.23046220E-02
   0.74950   0.23539569E-02
   0.75050   0.24089080E-02
   0.75150   0.24698908E-02
   0.75250   0.25358635E-02
   0.75350   0.26045404E-02
   0.75450   0.26730017E-02
   0.75550   0.27384544E-02
   0.75650   0.27988851E-02
   0.75750   0.28533828E-02
   0.75850   0.29020414E-02
   0.75950   0.29455246E-02
   0.76050   0.29845005E-02
   0.76150   0.30191764E-02
   0.76250   0.30491012E-02
   0.76350   0.30732835E-02
   0.76450   0.30905700E-02
   0.76550   0.31001321E-02
   0.76650   0.31018818E-02
   0.76750   0.30966613E-02
   0.76850   0.30861560E-02
   0.76950   0.30725973E-02
   0.77050   0.30583860E-02
   0.77150   0.30457801E-02
   0.77250   0.30367360E-02
   0.77350   0.30329218E-02
   0.77450   0.30358797E-02
   0.77550   0.30472742E-02
   0.77650   0.30691777E-02
   0.77750   0.31043512E-02
   0.77850   0.31565134E-02
   0.77950   0.32305249E-02
   0.78050   0.33315322E-02
   0.78150   0.34539006E-02
   0.78250   0.35351487E-02
   0.78350   0.35615889E-02
   0.78450   0.35939566E-02
   0.78550   0.36442243E-02
   0.78650   0.37120508E-02
   0.78750   0.37978271E-02
   0.78850   0.39054833E-02
   0.78950   0.40457374E-02
   0.79050   0.42433124E-02
   0.79150   0.45399214E-02
   0.79250   0.51523908E-02
   0.79350   0.16706847E-01
   0.79450   0.86911581E-02
   0.79550   0.55850139E-02
   0.79650   0.52644624E-02
   0.79750   0.55261860E-02
   0.79850   0.62645003E-02
   0.79950   0.80323145E-02
   0.80050   0.13092949E-01
   0.80150   0.22081446E-01
   0.80250   0.15618872E-01
   0.80350   0.13253623E-01
   0.80450   0.23870260E-01
   0.80550   0.35889667E-01
   0.80650   0.29825671E-01
   0.80750   0.39860200E-01
   0.80850   0.44708841E-01
   0.80950   0.40859975E-01
   0.81050   0.26921375E-01
   0.81150   0.22270383E-01
   0.81250   0.22309488E-01
   0.81350   0.25651565E-01
   0.81450   0.28636865E-01
   0.81550   0.30613877E-01
   0.81650   0.35547543E-01
   0.81750   0.41592546E-01
   0.81850   0.39186977E-01
   0.81950   0.31614807E-01
   0.82050   0.26583007E-01
   0.82150   0.25352631E-01
   0.82250   0.26562871E-01
   0.82350   0.27228504E-01
   0.82450   0.25242981E-01
   0.82550   0.22312522E-01
   0.82650   0.20766713E-01
   0.82750   0.20859016E-01
   0.82850   0.22127325E-01
   0.82950   0.23896746E-01
   0.83050   0.25499795E-01
   0.83150   0.26653154E-01
   0.83250   0.27381869E-01
   0.83350   0.27717737E-01
   0.83450   0.27659895E-01
   0.83550   0.27282486E-01
   0.83650   0.26754608E-01
   0.83750   0.26250158E-01
   0.83850   0.25843160E-01
   0.83950   0.25477627E-01
   0.84050   0.25029261E-01
   0.84150   0.24407983E-01
   0.84250   0.23584958E-01
   0.84350   0.22533854E-01
   0.84450   0.21697575E-01
   0.84550   0.21394217E-01
   0.84650   0.21554042E-01
   0.84750   0.22005094E-01
   0.84850   0.22413922E-01
   0.84950   0.22671074E-01
   0.85050   0.22886515E-01
   0.85150   0.23117317E-01
   0.85250   0.23385588E-01
   0.85350   0.23688162E-01
   0.85450   0.24003502E-01
   0.85550   0.24300953E-01
   0.85650   0.24550555E-01
   0.85750   0.24730988E-01
   0.85850   0.24833592E-01
   0.85950   0.24861988E-01
   0.86050   0.24828492E-01
   0.86150   0.24749491E-01
   0.86250   0.24641596E-01
   0.86350   0.24519401E-01
   0.86450   0.24394773E-01
   0.86550   0.24277138E-01
   0.86650   0.24174178E-01
   0.86750   0.24092620E-01
   0.86850   0.24038972E-01
   0.86950   0.24020340E-01
   0.87050   0.24045520E-01
   0.87150   0.24126839E-01
   0.87250   0.24283610E-01
   0.87350   0.24549413E-01
   0.87450   0.24989834E-01
   0.87550   0.25752420E-01
   0.87650   0.27223624E-01
   0.87750   0.30397290E-01
   0.87850   0.34661502E-01
   0.87950   0.33336788E-01
   0.88050   0.32880664E-01
   0.88150   0.38497116E-01
   0.88250   0.73580422E-01
   0.88350   0.38884543E-01
   0.88450   0.37217207E-01
   0.88550   0.47381110E-01
   0.88650   0.70535198E-01
   0.88750   0.70895769E-01
   0.88850   0.66673905E-01
   0.88950   0.70974052E-01
   0.89050   0.72722122E-01
   0.89150   0.66821471E-01
   0.89250   0.59301373E-01
   0.89350   0.57069108E-01
   0.89450   0.59813108E-01
   0.89550   0.58229677E-01
   0.89650   0.55754304E-01
   0.89750   0.58259990E-01
   0.89850   0.61663035E-01
   0.89950   0.62098354E-01
   0.90050   0.65773882E-01
   0.90150   0.72779238E-01
   0.90250   0.79563096E-01
   0.90350   0.87102555E-01
   0.90450   0.96929565E-01
   0.90550   0.10837301E+00
   0.90650   0.11797722E+00
   0.90750   0.12193129E+00
   0.90850   0.11979412E+00
   0.90950   0.11452968E+00
   0.91050   0.10944868E+00
   0.91150   0.10628972E+00
   0.91250   0.10541198E+00
   0.91350   0.10661048E+00
   0.91450   0.10967189E+00
   0.91550   0.11454758E+00
   0.91650   0.12125957E+00
   0.91750   0.12973604E+00
   0.91850   0.13977553E+00
   0.91950   0.15124117E+00
   0.92050   0.16428883E+00
   0.92150   0.17911854E+00
   0.92250   0.19497220E+00
   0.92350   0.20903927E+00
   0.92450   0.21715362E+00
   0.92550   0.21714310E+00
   0.92650   0.21095644E+00
   0.92750   0.20247225E+00
   0.92850   0.19459797E+00
   0.92950   0.18861462E+00
   0.93050   0.18478842E+00
   0.93150   0.18298399E+00
   0.93250   0.18298240E+00
   0.93350   0.18459415E+00
   0.93450   0.18767582E+00
   0.93550   0.19211292E+00
   0.93650   0.19779995E+00
   0.93750   0.20462857E+00
   0.93850   0.21247961E+00
   0.93950   0.22119901E+00
   0.94050   0.23052987E+00
   0.94150   0.24000688E+00
   0.94250   0.25038627E+00
   0.94350   0.26381487E+00
   0.94450   0.26690137E+00
   0.94550   0.26923871E+00
   0.94650   0.27012330E+00
   0.94750   0.27081531E+00
   0.94850   0.27468675E+00
   0.94950   0.28504401E+00
   0.95050   0.29568848E+00
   0.95150   0.30413052E+00
   0.95250   0.31382880E+00
   0.95350   0.32580101E+00
   0.95450   0.34015664E+00
   0.95550   0.35646075E+00
   0.95650   0.37234375E+00
   0.95750   0.38722751E+00
   0.95850   0.40185598E+00
   0.95950   0.41564566E+00
   0.96050   0.42772248E+00
   0.96150   0.43811855E+00
   0.96250   0.44806850E+00
   0.96350   0.45902440E+00
   0.96450   0.47179484E+00
   0.96550   0.48771957E+00
   0.96650   0.50983161E+00
   0.96750   0.53761178E+00
   0.96850   0.56522083E+00
   0.96950   0.59185266E+00
   0.97050   0.61906600E+00
   0.97150   0.64383548E+00
   0.97250   0.66134840E+00
   0.97350   0.67161626E+00
   0.97450   0.67820501E+00
   0.97550   0.68393266E+00
   0.97650   0.69099659E+00
   0.97750   0.70075017E+00
   0.97850   0.71293283E+00
   0.97950   0.72672981E+00
   0.98050   0.74134821E+00
   0.98150   0.75632870E+00
   0.98250   0.77158153E+00
   0.98350   0.78719014E+00
   0.98450   0.80300754E+00
   0.98550   0.81811714E+00
   0.98650   0.83063090E+00
   0.98750   0.83860195E+00
   0.98850   0.84182990E+00
   0.98950   0.84223032E+00
   0.99050   0.84198385E+00
   0.99150   0.84393930E+00
   0.99250   0.85125023E+00
   0.99350   0.86433345E+00
   0.99450   0.88049591E+00
   0.99550   0.89781368E+00
   0.99650   0.91440576E+00
   0.99750   0.92730004E+00
   0.99850   0.93181586E+00
   0.99950   0.92267960E+00
