# Transmission, k-averaged
# Date: 2021-05-13
#   E [eV]           T [G0]
   0.00050   0.39255559E-02
   0.00150   0.97054452E-01
   0.00250   0.14370006E+00
   0.00350   0.10126191E+00
   0.00450   0.76149575E-01
   0.00550   0.43472379E-01
   0.00650   0.39737705E-01
   0.00750   0.69829941E-01
   0.00850   0.10915975E-01
   0.00950   0.69296651E-01
   0.01050   0.61972667E-02
   0.01150   0.12033427E-01
   0.01250   0.10829329E-01
   0.01350   0.31422318E-02
   0.01450   0.13857666E-01
   0.01550   0.79084374E-02
   0.01650   0.22724606E-02
   0.01750   0.41901087E-02
   0.01850   0.54415617E-01
   0.01950   0.30891143E-02
   0.02050   0.17915800E-02
   0.02150   0.36016128E-02
   0.02250   0.59987593E-01
   0.02350   0.38908734E-02
   0.02450   0.15857309E-02
   0.02550   0.17431278E-02
   0.02650   0.54514664E-02
   0.02750   0.39319240E-01
   0.02850   0.30019481E-02
   0.02950   0.13663929E-02
   0.03050   0.13421070E-02
   0.03150   0.27251481E-02
   0.03250   0.24939829E-01
   0.03350   0.70301737E-02
   0.03450   0.17045724E-02
   0.03550   0.10715330E-02
   0.03650   0.11840295E-02
   0.03750   0.24281114E-02
   0.03850   0.17875459E-01
   0.03950   0.77685751E-02
   0.04050   0.16877558E-02
   0.04150   0.94876299E-03
   0.04250   0.90212037E-03
   0.04350   0.14306299E-02
   0.04450   0.49067605E-02
   0.04550   0.69697341E-02
   0.04650   0.17442402E-02
   0.04750   0.84502250E-03
   0.04850   0.60530525E-03
   0.04950   0.56360330E-03
   0.05050   0.64413779E-03
   0.05150   0.84786722E-03
   0.05250   0.10823555E-02
   0.05350   0.10146134E-02
   0.05450   0.71604754E-03
   0.05550   0.49660238E-03
   0.05650   0.38498640E-03
   0.05750   0.34110717E-03
   0.05850   0.34207819E-03
   0.05950   0.37877759E-03
   0.06050   0.44020271E-03
   0.06150   0.49011462E-03
   0.06250   0.47560982E-03
   0.06350   0.40237152E-03
   0.06450   0.32466688E-03
   0.06550   0.27073079E-03
   0.06650   0.24215708E-03
   0.06750   0.23441997E-03
   0.06850   0.24390446E-03
   0.06950   0.26707078E-03
   0.07050   0.29595042E-03
   0.07150   0.31433365E-03
   0.07250   0.30664715E-03
   0.07350   0.27605347E-03
   0.07450   0.23998907E-03
   0.07550   0.21136946E-03
   0.07650   0.19429659E-03
   0.07750   0.18871942E-03
   0.07850   0.19368609E-03
   0.07950   0.20786074E-03
   0.08050   0.22812723E-03
   0.08150   0.24741117E-03
   0.08250   0.25554528E-03
   0.08350   0.24692595E-03
   0.08450   0.22660784E-03
   0.08550   0.20465028E-03
   0.08650   0.18816530E-03
   0.08750   0.18013052E-03
   0.08850   0.18155047E-03
   0.08950   0.19303488E-03
   0.09050   0.21465389E-03
   0.09150   0.24163927E-03
   0.09250   0.25163058E-03
   0.09350   0.23335648E-03
   0.09450   0.20481643E-03
   0.09550   0.17762951E-03
   0.09650   0.15642514E-03
   0.09750   0.14196655E-03
   0.09850   0.13349131E-03
   0.09950   0.12985848E-03
   0.10050   0.12983514E-03
   0.10150   0.13200047E-03
   0.10250   0.13462688E-03
   0.10350   0.13586061E-03
   0.10450   0.13434028E-03
   0.10550   0.12986513E-03
   0.10650   0.12342796E-03
   0.10750   0.11654113E-03
   0.10850   0.11050647E-03
   0.10950   0.10610566E-03
   0.11050   0.10364173E-03
   0.11150   0.10307973E-03
   0.11250   0.10414130E-03
   0.11350   0.10633468E-03
   0.11450   0.10897111E-03
   0.11550   0.11124616E-03
   0.11650   0.11243478E-03
   0.11750   0.11214324E-03
   0.11850   0.11045743E-03
   0.11950   0.10786987E-03
   0.12050   0.10504478E-03
   0.12150   0.10258603E-03
   0.12250   0.10091119E-03
   0.12350   0.10022521E-03
   0.12450   0.10053972E-03
   0.12550   0.10169745E-03
   0.12650   0.10339257E-03
   0.12750   0.10520240E-03
   0.12850   0.10665382E-03
   0.12950   0.10733182E-03
   0.13050   0.10699966E-03
   0.13150   0.10567070E-03
   0.13250   0.10358787E-03
   0.13350   0.10112422E-03
   0.13450   0.98662393E-04
   0.13550   0.96505122E-04
   0.13650   0.94832852E-04
   0.13750   0.93696399E-04
   0.13850   0.93026341E-04
   0.13950   0.92649047E-04
   0.14050   0.92310234E-04
   0.14150   0.91713307E-04
   0.14250   0.90576927E-04
   0.14350   0.88703695E-04
   0.14450   0.86036220E-04
   0.14550   0.82673585E-04
   0.14650   0.78838668E-04
   0.14750   0.74813681E-04
   0.14850   0.70875481E-04
   0.14950   0.67254550E-04
   0.15050   0.64123909E-04
   0.15150   0.61610343E-04
   0.15250   0.59816386E-04
   0.15350   0.58842317E-04
   0.15450   0.58798909E-04
   0.15550   0.59803067E-04
   0.15650   0.61952807E-04
   0.15750   0.65288594E-04
   0.15850   0.69759946E-04
   0.15950   0.75216638E-04
   0.16050   0.81427424E-04
   0.16150   0.88111665E-04
   0.16250   0.94966956E-04
   0.16350   0.10168744E-03
   0.16450   0.10797766E-03
   0.16550   0.11356849E-03
   0.16650   0.11823679E-03
   0.16750   0.12182575E-03
   0.16850   0.12425936E-03
   0.16950   0.12554547E-03
   0.17050   0.12576288E-03
   0.17150   0.12502792E-03
   0.17250   0.12342795E-03
   0.17350   0.12086866E-03
   0.17450   0.11660302E-03
   0.17550   0.10803901E-03
   0.17650   0.95520903E-04
   0.17750   0.85364809E-04
   0.17850   0.77908575E-04
   0.17950   0.72192764E-04
   0.18050   0.67610745E-04
   0.18150   0.63793457E-04
   0.18250   0.60499930E-04
   0.18350   0.57562596E-04
   0.18450   0.54859727E-04
   0.18550   0.52300697E-04
   0.18650   0.49817747E-04
   0.18750   0.47361773E-04
   0.18850   0.44901957E-04
   0.18950   0.42430700E-04
   0.19050   0.39976905E-04
   0.19150   0.37630562E-04
   0.19250   0.35576188E-04
   0.19350   0.34113822E-04
   0.19450   0.33609547E-04
   0.19550   0.34295503E-04
   0.19650   0.35937603E-04
   0.19750   0.37650687E-04
   0.19850   0.38224644E-04
   0.19950   0.36837686E-04
   0.20050   0.33518339E-04
   0.20150   0.28989563E-04
   0.20250   0.24166819E-04
   0.20350   0.19757203E-04
   0.20450   0.16134807E-04
   0.20550   0.13408382E-04
   0.20650   0.11545411E-04
   0.20750   0.10480599E-04
   0.20850   0.10204683E-04
   0.20950   0.10880583E-04
   0.21050   0.13132049E-04
   0.21150   0.19049910E-04
   0.21250   0.35859244E-04
   0.21350   0.69327638E-04
   0.21450   0.52487623E-04
   0.21550   0.28998416E-04
   0.21650   0.20244226E-04
   0.21750   0.17035431E-04
   0.21850   0.15664715E-04
   0.21950   0.14786717E-04
   0.22050   0.14159768E-04
   0.22150   0.13707086E-04
   0.22250   0.13381690E-04
   0.22350   0.13153400E-04
   0.22450   0.13002931E-04
   0.22550   0.12918336E-04
   0.22650   0.12892900E-04
   0.22750   0.12924002E-04
   0.22850   0.13012630E-04
   0.22950   0.13163459E-04
   0.23050   0.13385452E-04
   0.23150   0.13692805E-04
   0.23250   0.14104058E-04
   0.23350   0.14619835E-04
   0.23450   0.15023974E-04
   0.23550   0.14668789E-04
   0.23650   0.13884654E-04
   0.23750   0.13097141E-04
   0.23850   0.12377896E-04
   0.23950   0.11728287E-04
   0.24050   0.11139810E-04
   0.24150   0.10603817E-04
   0.24250   0.10113029E-04
   0.24350   0.96615368E-05
   0.24450   0.92445443E-05
   0.24550   0.88581137E-05
   0.24650   0.84989642E-05
   0.24750   0.81643229E-05
   0.24850   0.78518060E-05
   0.24950   0.75593480E-05
   0.25050   0.72851335E-05
   0.25150   0.70275614E-05
   0.25250   0.67852106E-05
   0.25350   0.65568192E-05
   0.25450   0.63412640E-05
   0.25550   0.61375463E-05
   0.25650   0.59447807E-05
   0.25750   0.57621805E-05
   0.25850   0.55890487E-05
   0.25950   0.54247653E-05
   0.26050   0.52687792E-05
   0.26150   0.51205948E-05
   0.26250   0.49797654E-05
   0.26350   0.48458851E-05
   0.26450   0.47185799E-05
   0.26550   0.45975025E-05
   0.26650   0.44823287E-05
   0.26750   0.43727528E-05
   0.26850   0.42684860E-05
   0.26950   0.41692560E-05
   0.27050   0.40748059E-05
   0.27150   0.39848937E-05
   0.27250   0.38992944E-05
   0.27350   0.38178005E-05
   0.27450   0.37402201E-05
   0.27550   0.36663807E-05
   0.27650   0.35961266E-05
   0.27750   0.35293185E-05
   0.27850   0.34658331E-05
   0.27950   0.34055608E-05
   0.28050   0.33484048E-05
   0.28150   0.32942771E-05
   0.28250   0.32430976E-05
   0.28350   0.31947909E-05
   0.28450   0.31492832E-05
   0.28550   0.31064994E-05
   0.28650   0.30663598E-05
   0.28750   0.30287736E-05
   0.28850   0.29936334E-05
   0.28950   0.29608032E-05
   0.29050   0.29300970E-05
   0.29150   0.29012460E-05
   0.29250   0.28738277E-05
   0.29350   0.28471297E-05
   0.29450   0.28198422E-05
   0.29550   0.27893029E-05
   0.29650   0.27493354E-05
   0.29750   0.26827754E-05
   0.29850   0.25345687E-05
   0.29950   0.22403478E-05
   0.30050   0.19522904E-05
   0.30150   0.17362751E-05
   0.30250   0.15711818E-05
   0.30350   0.14400586E-05
   0.30450   0.13328388E-05
   0.30550   0.12433085E-05
   0.30650   0.11674020E-05
   0.30750   0.11023259E-05
   0.30850   0.10460848E-05
   0.30950   0.99721046E-06
   0.31050   0.95459927E-06
   0.31150   0.91740770E-06
   0.31250   0.88498672E-06
   0.31350   0.85683615E-06
   0.31450   0.83257481E-06
   0.31550   0.81192019E-06
   0.31650   0.79467549E-06
   0.31750   0.78072219E-06
   0.31850   0.77001761E-06
   0.31950   0.76259687E-06
   0.32050   0.75857992E-06
   0.32150   0.75818434E-06
   0.32250   0.76174587E-06
   0.32350   0.76974868E-06
   0.32450   0.78287036E-06
   0.32550   0.80204825E-06
   0.32650   0.82857730E-06
   0.32750   0.86425774E-06
   0.32850   0.91162059E-06
   0.32950   0.97427994E-06
   0.33050   0.10574956E-05
   0.33150   0.11690933E-05
   0.33250   0.13210035E-05
   0.33350   0.15318857E-05
   0.33450   0.18316236E-05
   0.33550   0.22688048E-05
   0.33650   0.29214859E-05
   0.33750   0.39037268E-05
   0.33850   0.53226167E-05
   0.33950   0.70408219E-05
   0.34050   0.82270271E-05
   0.34150   0.78645180E-05
   0.34250   0.63618236E-05
   0.34350   0.48085890E-05
   0.34450   0.36442441E-05
   0.34550   0.28499560E-05
   0.34650   0.23152195E-05
   0.34750   0.19502384E-05
   0.34850   0.16961188E-05
   0.34950   0.15160088E-05
   0.35050   0.13868182E-05
   0.35150   0.12938352E-05
   0.35250   0.12274953E-05
   0.35350   0.11814724E-05
   0.35450   0.11515401E-05
   0.35550   0.11348884E-05
   0.35650   0.11297114E-05
   0.35750   0.11349726E-05
   0.35850   0.11502956E-05
   0.35950   0.11759640E-05
   0.36050   0.12129907E-05
   0.36150   0.12626465E-05
   0.36250   0.13181142E-05
   0.36350   0.13422045E-05
   0.36450   0.13342648E-05
   0.36550   0.13169034E-05
   0.36650   0.12981601E-05
   0.36750   0.12807739E-05
   0.36850   0.12659293E-05
   0.36950   0.12542771E-05
   0.37050   0.12462840E-05
   0.37150   0.12423837E-05
   0.37250   0.12430639E-05
   0.37350   0.12489334E-05
   0.37450   0.12607957E-05
   0.37550   0.12797462E-05
   0.37650   0.13073184E-05
   0.37750   0.13457171E-05
   0.37850   0.13982005E-05
   0.37950   0.14696182E-05
   0.38050   0.15661732E-05
   0.38150   0.16824823E-05
   0.38250   0.17323498E-05
   0.38350   0.16781622E-05
   0.38450   0.16027337E-05
   0.38550   0.15333428E-05
   0.38650   0.14749651E-05
   0.38750   0.14283434E-05
   0.38850   0.13934733E-05
   0.38950   0.13703968E-05
   0.39050   0.13594346E-05
   0.39150   0.13612963E-05
   0.39250   0.13771817E-05
   0.39350   0.14089134E-05
   0.39450   0.14591284E-05
   0.39550   0.15315502E-05
   0.39650   0.16313641E-05
   0.39750   0.17656946E-05
   0.39850   0.19440931E-05
   0.39950   0.21786436E-05
   0.40050   0.24824112E-05
   0.40150   0.28627092E-05
   0.40250   0.33014171E-05
   0.40350   0.37141547E-05
   0.40450   0.39142519E-05
   0.40550   0.36973665E-05
   0.40650   0.30779709E-05
   0.40750   0.23199063E-05
   0.40850   0.16614049E-05
   0.40950   0.11779284E-05
   0.41050   0.84822386E-06
   0.41150   0.62867485E-06
   0.41250   0.48119028E-06
   0.41350   0.37540750E-06
   0.41450   0.28783950E-06
   0.41550   0.22709443E-06
   0.41650   0.19504037E-06
   0.41750   0.18029613E-06
   0.41850   0.17675875E-06
   0.41950   0.18197447E-06
   0.42050   0.19557682E-06
   0.42150   0.21881507E-06
   0.42250   0.25464630E-06
   0.42350   0.30800882E-06
   0.42450   0.38510706E-06
   0.42550   0.48702947E-06
   0.42650   0.58699379E-06
   0.42750   0.60769969E-06
   0.42850   0.50434204E-06
   0.42950   0.35541007E-06
   0.43050   0.23731934E-06
   0.43150   0.16090182E-06
   0.43250   0.11379013E-06
   0.43350   0.84484142E-07
   0.43450   0.65758464E-07
   0.43550   0.53428323E-07
   0.43650   0.45077069E-07
   0.43750   0.39278234E-07
   0.43850   0.35164991E-07
   0.43950   0.32194745E-07
   0.44050   0.30018299E-07
   0.44150   0.28405221E-07
   0.44250   0.27200102E-07
   0.44350   0.26296146E-07
   0.44450   0.25618839E-07
   0.44550   0.25115591E-07
   0.44650   0.24749017E-07
   0.44750   0.24492522E-07
   0.44850   0.24327319E-07
   0.44950   0.24240435E-07
   0.45050   0.24223345E-07
   0.45150   0.24271053E-07
   0.45250   0.24381499E-07
   0.45350   0.24555222E-07
   0.45450   0.24795204E-07
   0.45550   0.25106914E-07
   0.45650   0.25498526E-07
   0.45750   0.25981372E-07
   0.45850   0.26570646E-07
   0.45950   0.27286500E-07
   0.46050   0.28155661E-07
   0.46150   0.29213860E-07
   0.46250   0.30509508E-07
   0.46350   0.32109384E-07
   0.46450   0.34107629E-07
   0.46550   0.36640504E-07
   0.46650   0.39911434E-07
   0.46750   0.44235367E-07
   0.46850   0.50121585E-07
   0.46950   0.58437486E-07
   0.47050   0.70756215E-07
   0.47150   0.90156718E-07
   0.47250   0.12323575E-06
   0.47350   0.18553281E-06
   0.47450   0.31448647E-06
   0.47550   0.55097257E-06
   0.47650   0.60248556E-06
   0.47750   0.32964456E-06
   0.47850   0.16407508E-06
   0.47950   0.93186998E-07
   0.48050   0.60506018E-07
   0.48150   0.43755954E-07
   0.48250   0.34430155E-07
   0.48350   0.28933638E-07
   0.48450   0.25584505E-07
   0.48550   0.23526322E-07
   0.48650   0.22292340E-07
   0.48750   0.21614229E-07
   0.48850   0.21331386E-07
   0.48950   0.21345100E-07
   0.49050   0.21594170E-07
   0.49150   0.22041533E-07
   0.49250   0.22666946E-07
   0.49350   0.23463468E-07
   0.49450   0.24437075E-07
   0.49550   0.25610376E-07
   0.49650   0.27034320E-07
   0.49750   0.28810431E-07
   0.49850   0.30942740E-07
   0.49950   0.32793579E-07
   0.50050   0.34171784E-07
   0.50150   0.35255617E-07
   0.50250   0.36138029E-07
   0.50350   0.36864375E-07
   0.50450   0.37461000E-07
   0.50550   0.37946176E-07
   0.50650   0.38335241E-07
   0.50750   0.38643915E-07
   0.50850   0.38891461E-07
   0.50950   0.39104631E-07
   0.51050   0.39323545E-07
   0.51150   0.39611010E-07
   0.51250   0.40068095E-07
   0.51350   0.40861032E-07
   0.51450   0.42269164E-07
   0.51550   0.44773959E-07
   0.51650   0.49231947E-07
   0.51750   0.57231524E-07
   0.51850   0.71887811E-07
   0.51950   0.99773658E-07
   0.52050   0.15512141E-06
   0.52150   0.25723983E-06
   0.52250   0.43039933E-06
   0.52350   0.73945017E-06
   0.52450   0.13020385E-05
   0.52550   0.22723891E-05
   0.52650   0.35986111E-05
   0.52750   0.45045449E-05
   0.52850   0.42582778E-05
   0.52950   0.34344407E-05
   0.53050   0.26683222E-05
   0.53150   0.20966700E-05
   0.53250   0.16766835E-05
   0.53350   0.13544283E-05
   0.53450   0.11331746E-05
   0.53550   0.10033287E-05
   0.53650   0.94613353E-06
   0.53750   0.93189573E-06
   0.53850   0.21592327E-05
   0.53950   0.15199930E-04
   0.54050   0.17871927E-03
   0.54150   0.51156999E-05
   0.54250   0.15394249E-05
   0.54350   0.90357025E-06
   0.54450   0.74035074E-06
   0.54550   0.74117503E-06
   0.54650   0.84631660E-06
   0.54750   0.10617672E-05
   0.54850   0.14382580E-05
   0.54950   0.21002920E-05
   0.55050   0.33514159E-05
   0.55150   0.60095167E-05
   0.55250   0.12494927E-04
   0.55350   0.28647028E-04
   0.55450   0.48585174E-04
   0.55550   0.54047905E-04
   0.55650   0.63443280E-04
   0.55750   0.83902523E-04
   0.55850   0.11432864E-03
   0.55950   0.14616377E-03
   0.56050   0.20595455E-03
   0.56150   0.43381460E-03
   0.56250   0.12528375E-02
   0.56350   0.50109322E-02
   0.56450   0.64177386E-03
   0.56550   0.82838778E-04
   0.56650   0.36683159E-04
   0.56750   0.72355899E-04
   0.56850   0.34277648E-04
   0.56950   0.17975188E-04
   0.57050   0.12393057E-04
   0.57150   0.16407238E-03
   0.57250   0.75320937E-02
   0.57350   0.43856434E-03
   0.57450   0.18757913E-03
   0.57550   0.28349235E-03
   0.57650   0.42776644E-03
   0.57750   0.42358850E-03
   0.57850   0.31598550E-03
   0.57950   0.19490499E-03
   0.58050   0.10639447E-03
   0.58150   0.57501657E-04
   0.58250   0.32372787E-04
   0.58350   0.24656261E-04
   0.58450   0.26998472E-04
   0.58550   0.35174930E-04
   0.58650   0.47487738E-04
   0.58750   0.61476392E-04
   0.58850   0.74449330E-04
   0.58950   0.86900771E-04
   0.59050   0.10042335E-03
   0.59150   0.11452966E-03
   0.59250   0.12747778E-03
   0.59350   0.13877694E-03
   0.59450   0.14945444E-03
   0.59550   0.16034985E-03
   0.59650   0.17122204E-03
   0.59750   0.18123932E-03
   0.59850   0.18980826E-03
   0.59950   0.19679483E-03
   0.60050   0.20216955E-03
   0.60150   0.20573322E-03
   0.60250   0.20724810E-03
   0.60350   0.20673487E-03
   0.60450   0.20455284E-03
   0.60550   0.20120190E-03
   0.60650   0.19710476E-03
   0.60750   0.19257491E-03
   0.60850   0.18794044E-03
   0.60950   0.18365696E-03
   0.61050   0.18026961E-03
   0.61150   0.17821990E-03
   0.61250   0.17761107E-03
   0.61350   0.17803641E-03
   0.61450   0.17846526E-03
   0.61550   0.17707128E-03
   0.61650   0.17082800E-03
   0.61750   0.15438363E-03
   0.61850   0.12191380E-03
   0.61950   0.87025350E-04
   0.62050   0.60818242E-04
   0.62150   0.43756037E-04
   0.62250   0.34588407E-04
   0.62350   0.30190664E-04
   0.62450   0.27832677E-04
   0.62550   0.26583206E-04
   0.62650   0.25941374E-04
   0.62750   0.25657320E-04
   0.62850   0.25638243E-04
   0.62950   0.25863217E-04
   0.63050   0.26335043E-04
   0.63150   0.27059410E-04
   0.63250   0.28036031E-04
   0.63350   0.29253126E-04
   0.63450   0.30683917E-04
   0.63550   0.32287531E-04
   0.63650   0.34016131E-04
   0.63750   0.35826761E-04
   0.63850   0.37692975E-04
   0.63950   0.39610386E-04
   0.64050   0.41593321E-04
   0.64150   0.43664731E-04
   0.64250   0.45844899E-04
   0.64350   0.48144004E-04
   0.64450   0.50560677E-04
   0.64550   0.53085638E-04
   0.64650   0.55707817E-04
   0.64750   0.58420108E-04
   0.64850   0.61222599E-04
   0.64950   0.64122454E-04
   0.65050   0.67130874E-04
   0.65150   0.70258742E-04
   0.65250   0.73512558E-04
   0.65350   0.76891738E-04
   0.65450   0.80387843E-04
   0.65550   0.83985440E-04
   0.65650   0.87664237E-04
   0.65750   0.91402013E-04
   0.65850   0.95177747E-04
   0.65950   0.98974328E-04
   0.66050   0.10278008E-03
   0.66150   0.10658886E-03
   0.66250   0.11039875E-03
   0.66350   0.11420972E-03
   0.66450   0.11802131E-03
   0.66550   0.12183113E-03
   0.66650   0.12563472E-03
   0.66750   0.12942714E-03
   0.66850   0.13320602E-03
   0.66950   0.13697536E-03
   0.67050   0.14074908E-03
   0.67150   0.14455337E-03
   0.67250   0.14842738E-03
   0.67350   0.15242196E-03
   0.67450   0.15659726E-03
   0.67550   0.16102014E-03
   0.67650   0.16576222E-03
   0.67750   0.17089954E-03
   0.67850   0.17651419E-03
   0.67950   0.18269756E-03
   0.68050   0.18955480E-03
   0.68150   0.19720869E-03
   0.68250   0.20579914E-03
   0.68350   0.21546510E-03
   0.68450   0.22625217E-03
   0.68550   0.23765331E-03
   0.68650   0.24601011E-03
   0.68750   0.23730830E-03
   0.68850   0.21379636E-03
   0.68950   0.19247421E-03
   0.69050   0.17533416E-03
   0.69150   0.16139446E-03
   0.69250   0.14980759E-03
   0.69350   0.14000440E-03
   0.69450   0.13161082E-03
   0.69550   0.12438218E-03
   0.69650   0.11816378E-03
   0.69750   0.11286910E-03
   0.69850   0.10846936E-03
   0.69950   0.10499170E-03
   0.70050   0.10252537E-03
   0.70150   0.10123834E-03
   0.70250   0.10140821E-03
   0.70350   0.10345191E-03
   0.70450   0.10765002E-03
   0.70550   0.11115112E-03
   0.70650   0.10862344E-03
   0.70750   0.10366568E-03
   0.70850   0.98579105E-04
   0.70950   0.93785355E-04
   0.71050   0.89330686E-04
   0.71150   0.85187115E-04
   0.71250   0.81313214E-04
   0.71350   0.77668075E-04
   0.71450   0.74214506E-04
   0.71550   0.70919566E-04
   0.71650   0.67754518E-04
   0.71750   0.64694745E-04
   0.71850   0.61719817E-04
   0.71950   0.58813628E-04
   0.72050   0.55964607E-04
   0.72150   0.53165873E-04
   0.72250   0.50415430E-04
   0.72350   0.47716261E-04
   0.72450   0.45076355E-04
   0.72550   0.42508698E-04
   0.72650   0.40031253E-04
   0.72750   0.37667098E-04
   0.72850   0.35445297E-04
   0.72950   0.33403976E-04
   0.73050   0.31601394E-04
   0.73150   0.30159217E-04
   0.73250   0.29352239E-04
   0.73350   0.29141487E-04
   0.73450   0.29205339E-04
   0.73550   0.29559678E-04
   0.73650   0.30259387E-04
   0.73750   0.31335152E-04
   0.73850   0.32798758E-04
   0.73950   0.34649169E-04
   0.74050   0.36877042E-04
   0.74150   0.39468694E-04
   0.74250   0.42410011E-04
   0.74350   0.45690565E-04
   0.74450   0.49308146E-04
   0.74550   0.53273721E-04
   0.74650   0.57617126E-04
   0.74750   0.62393694E-04
   0.74850   0.67692294E-04
   0.74950   0.73645570E-04
   0.75050   0.80443504E-04
   0.75150   0.88352601E-04
   0.75250   0.97744211E-04
   0.75350   0.10913912E-03
   0.75450   0.12328134E-03
   0.75550   0.14126521E-03
   0.75650   0.16475137E-03
   0.75750   0.19623961E-03
   0.75850   0.23840540E-03
   0.75950   0.28229144E-03
   0.76050   0.28598742E-03
   0.76150   0.87208499E-03
   0.76250   0.66387054E-03
   0.76350   0.84669894E-03
   0.76450   0.97680779E-03
   0.76550   0.86708780E-03
   0.76650   0.19326517E-02
   0.76750   0.45966711E-02
   0.76850   0.36975956E-02
   0.76950   0.22436026E-02
   0.77050   0.13890951E-02
   0.77150   0.12086699E-02
   0.77250   0.13225402E-02
   0.77350   0.16369886E-02
   0.77450   0.23068180E-02
   0.77550   0.51931101E-02
   0.77650   0.31722754E-01
   0.77750   0.73505468E-02
   0.77850   0.63142492E-02
   0.77950   0.15412496E-01
   0.78050   0.48750568E-01
   0.78150   0.75556926E-01
   0.78250   0.13172697E+00
   0.78350   0.35700817E-01
   0.78450   0.24365732E-01
   0.78550   0.13436797E-01
   0.78650   0.89595327E-02
   0.78750   0.63033723E-02
   0.78850   0.51861932E-02
   0.78950   0.50233747E-02
   0.79050   0.45153690E-02
   0.79150   0.39766678E-02
   0.79250   0.40017241E-02
   0.79350   0.42055780E-02
   0.79450   0.42982791E-02
   0.79550   0.42994716E-02
   0.79650   0.42828531E-02
   0.79750   0.43135942E-02
   0.79850   0.43641343E-02
   0.79950   0.43342458E-02
   0.80050   0.41855914E-02
   0.80150   0.39281826E-02
   0.80250   0.35732551E-02
   0.80350   0.31647626E-02
   0.80450   0.27780300E-02
   0.80550   0.24707599E-02
   0.80650   0.22598710E-02
   0.80750   0.21310169E-02
   0.80850   0.20568441E-02
   0.80950   0.20103632E-02
   0.81050   0.19715151E-02
   0.81150   0.19303260E-02
   0.81250   0.18871569E-02
   0.81350   0.18488795E-02
   0.81450   0.18230034E-02
   0.81550   0.18134314E-02
   0.81650   0.18192164E-02
   0.81750   0.18354037E-02
   0.81850   0.18548695E-02
   0.81950   0.18707310E-02
   0.82050   0.18789944E-02
   0.82150   0.18804861E-02
   0.82250   0.18809536E-02
   0.82350   0.18895711E-02
   0.82450   0.19180147E-02
   0.82550   0.19823029E-02
   0.82650   0.20826447E-02
   0.82750   0.21817037E-02
   0.82850   0.22708424E-02
   0.82950   0.23467836E-02
   0.83050   0.24045249E-02
   0.83150   0.24429858E-02
   0.83250   0.24659038E-02
   0.83350   0.24789267E-02
   0.83450   0.24877368E-02
   0.83550   0.24991133E-02
   0.83650   0.25225270E-02
   0.83750   0.25693090E-02
   0.83850   0.26496188E-02
   0.83950   0.27700928E-02
   0.84050   0.29336915E-02
   0.84150   0.31401934E-02
   0.84250   0.33826048E-02
   0.84350   0.36178934E-02
   0.84450   0.37888971E-02
   0.84550   0.39032195E-02
   0.84650   0.39677653E-02
   0.84750   0.39977296E-02
   0.84850   0.40190769E-02
   0.84950   0.40426562E-02
   0.85050   0.40787719E-02
   0.85150   0.41372208E-02
   0.85250   0.42234859E-02
   0.85350   0.43405881E-02
   0.85450   0.44910833E-02
   0.85550   0.46781106E-02
   0.85650   0.49049403E-02
   0.85750   0.51727793E-02
   0.85850   0.54775206E-02
   0.85950   0.58072587E-02
   0.86050   0.61427578E-02
   0.86150   0.64617586E-02
   0.86250   0.67455554E-02
   0.86350   0.69844844E-02
   0.86450   0.71797259E-02
   0.86550   0.73414589E-02
   0.86650   0.74852929E-02
   0.86750   0.76286839E-02
   0.86850   0.77878702E-02
   0.86950   0.79751275E-02
   0.87050   0.81959423E-02
   0.87150   0.84458403E-02
   0.87250   0.87071881E-02
   0.87350   0.89477757E-02
   0.87450   0.91248192E-02
   0.87550   0.91974456E-02
   0.87650   0.91447020E-02
   0.87750   0.89780167E-02
   0.87850   0.87378342E-02
   0.87950   0.84767137E-02
   0.88050   0.82413303E-02
   0.88150   0.80628293E-02
   0.88250   0.79558948E-02
   0.88350   0.79220636E-02
   0.88450   0.79533933E-02
   0.88550   0.80351159E-02
   0.88650   0.81481114E-02
   0.88750   0.82733789E-02
   0.88850   0.84002204E-02
   0.88950   0.85367644E-02
   0.89050   0.87172352E-02
   0.89150   0.90000862E-02
   0.89250   0.94570108E-02
   0.89350   0.10159881E-01
   0.89450   0.11173241E-01
   0.89550   0.12554041E-01
   0.89650   0.14354275E-01
   0.89750   0.16620401E-01
   0.89850   0.19387834E-01
   0.89950   0.22687707E-01
   0.90050   0.26627272E-01
   0.90150   0.31545665E-01
   0.90250   0.38876582E-01
   0.90350   0.59637576E-01
   0.90450   0.11599371E+00
   0.90550   0.68721905E-01
   0.90650   0.70664957E-01
   0.90750   0.80860339E-01
   0.90850   0.88285819E-01
   0.90950   0.10145014E+00
   0.91050   0.14499356E+00
   0.91150   0.21394232E+00
   0.91250   0.20150062E+00
   0.91350   0.43797272E+00
   0.91450   0.46944189E+00
   0.91550   0.31499481E+00
   0.91650   0.25803253E+00
   0.91750   0.26413366E+00
   0.91850   0.27901518E+00
   0.91950   0.30701613E+00
   0.92050   0.37758133E+00
   0.92150   0.38971293E+00
   0.92250   0.51900417E+00
   0.92350   0.67209214E+00
   0.92450   0.52032369E+00
   0.92550   0.47824642E+00
   0.92650   0.51137197E+00
   0.92750   0.56328428E+00
   0.92850   0.51286751E+00
   0.92950   0.44370338E+00
   0.93050   0.41623735E+00
   0.93150   0.40487096E+00
   0.93250   0.39089376E+00
   0.93350   0.37303355E+00
   0.93450   0.35930294E+00
   0.93550   0.35567588E+00
   0.93650   0.33652413E+00
   0.93750   0.28295496E+00
   0.93850   0.23734891E+00
   0.93950   0.21033138E+00
   0.94050   0.19433168E+00
   0.94150   0.18556929E+00
   0.94250   0.18342675E+00
   0.94350   0.18738635E+00
   0.94450   0.19596778E+00
   0.94550   0.20894042E+00
   0.94650   0.22897214E+00
   0.94750   0.25642198E+00
   0.94850   0.28449896E+00
   0.94950   0.29981798E+00
   0.95050   0.29063907E+00
   0.95150   0.26124704E+00
   0.95250   0.22707500E+00
   0.95350   0.19770399E+00
   0.95450   0.17606626E+00
   0.95550   0.16362531E+00
   0.95650   0.15917601E+00
   0.95750   0.15807839E+00
   0.95850   0.15828206E+00
   0.95950   0.15897050E+00
   0.96050   0.15999117E+00
   0.96150   0.16361988E+00
   0.96250   0.17417839E+00
   0.96350   0.19294357E+00
   0.96450   0.21188667E+00
   0.96550   0.21535757E+00
   0.96650   0.20530561E+00
   0.96750   0.19534452E+00
   0.96850   0.18888746E+00
   0.96950   0.18461597E+00
   0.97050   0.18154588E+00
   0.97150   0.17965135E+00
   0.97250   0.17906703E+00
   0.97350   0.17941420E+00
   0.97450   0.17991450E+00
   0.97550   0.17981346E+00
   0.97650   0.17892574E+00
   0.97750   0.17773286E+00
   0.97850   0.17641161E+00
   0.97950   0.17508110E+00
   0.98050   0.17409708E+00
   0.98150   0.17413446E+00
   0.98250   0.17612068E+00
   0.98350   0.18114962E+00
   0.98450   0.19039893E+00
   0.98550   0.20508164E+00
   0.98650   0.22642201E+00
   0.98750   0.25513580E+00
   0.98850   0.28995776E+00
   0.98950   0.32585531E+00
   0.99050   0.35566241E+00
   0.99150   0.37581140E+00
   0.99250   0.38510993E+00
   0.99350   0.39014581E+00
   0.99450   0.40273863E+00
   0.99550   0.42550057E+00
   0.99650   0.45869982E+00
   0.99750   0.51354146E+00
   0.99850   0.60252798E+00
   0.99950   0.66569847E+00
