# Transmission, k-averaged
# Date: 2021-05-13
#   E [eV]           T [G0]
   0.00050   0.72752967E-01
   0.00150   0.61564293E-01
   0.00250   0.57243552E-01
   0.00350   0.20667788E-01
   0.00450   0.48577492E-02
   0.00550   0.42742235E-02
   0.00650   0.12274447E-01
   0.00750   0.25812238E-01
   0.00850   0.26156358E-01
   0.00950   0.16882313E-01
   0.01050   0.19375827E-01
   0.01150   0.19114353E-01
   0.01250   0.85087828E-02
   0.01350   0.64705007E-01
   0.01450   0.95294369E-02
   0.01550   0.80229351E-02
   0.01650   0.50937984E-01
   0.01750   0.13145828E-01
   0.01850   0.61518038E-02
   0.01950   0.11548596E-01
   0.02050   0.71587913E-01
   0.02150   0.10642232E-01
   0.02250   0.54285238E-02
   0.02350   0.75504677E-02
   0.02450   0.36627367E-01
   0.02550   0.27191339E-01
   0.02650   0.64820102E-02
   0.02750   0.44900835E-02
   0.02850   0.64536687E-02
   0.02950   0.25327705E-01
   0.03050   0.45869790E-01
   0.03150   0.76077715E-02
   0.03250   0.39282576E-02
   0.03350   0.37983260E-02
   0.03450   0.66719973E-02
   0.03550   0.32180123E-01
   0.03650   0.32998029E-01
   0.03750   0.62653027E-02
   0.03850   0.32316078E-02
   0.03950   0.28672938E-02
   0.04050   0.41295737E-02
   0.04150   0.12020491E-01
   0.04250   0.55683203E-01
   0.04350   0.81870174E-02
   0.04450   0.30419461E-02
   0.04550   0.21162659E-02
   0.04650   0.21449325E-02
   0.04750   0.28140037E-02
   0.04850   0.42150896E-02
   0.04950   0.48396839E-02
   0.05050   0.32498091E-02
   0.05150   0.19467756E-02
   0.05250   0.13444027E-02
   0.05350   0.11024498E-02
   0.05450   0.10549249E-02
   0.05550   0.11460269E-02
   0.05650   0.13444542E-02
   0.05750   0.15394463E-02
   0.05850   0.15113369E-02
   0.05950   0.12447496E-02
   0.06050   0.96103159E-03
   0.06150   0.77045971E-03
   0.06250   0.67003904E-03
   0.06350   0.63756219E-03
   0.06450   0.65780309E-03
   0.06550   0.71788055E-03
   0.06650   0.79119945E-03
   0.06750   0.82609057E-03
   0.06850   0.78103720E-03
   0.06950   0.67899039E-03
   0.07050   0.57476835E-03
   0.07150   0.49879967E-03
   0.07250   0.45636311E-03
   0.07350   0.44421546E-03
   0.07450   0.45819447E-03
   0.07550   0.49280992E-03
   0.07650   0.53627120E-03
   0.07750   0.56660362E-03
   0.07850   0.56179723E-03
   0.07950   0.52178738E-03
   0.08050   0.46846547E-03
   0.08150   0.42321606E-03
   0.08250   0.39626475E-03
   0.08350   0.39050652E-03
   0.08450   0.40655874E-03
   0.08550   0.44427102E-03
   0.08650   0.50041021E-03
   0.08750   0.56316034E-03
   0.08850   0.60978928E-03
   0.08950   0.62006240E-03
   0.09050   0.59633225E-03
   0.09150   0.55710622E-03
   0.09250   0.51431282E-03
   0.09350   0.48825669E-03
   0.09450   0.48763838E-03
   0.09550   0.50582766E-03
   0.09650   0.53368666E-03
   0.09750   0.55990607E-03
   0.09850   0.57341589E-03
   0.09950   0.56905253E-03
   0.10050   0.55047672E-03
   0.10150   0.52649947E-03
   0.10250   0.50535309E-03
   0.10350   0.49199664E-03
   0.10450   0.48830273E-03
   0.10550   0.49398246E-03
   0.10650   0.50712738E-03
   0.10750   0.52434718E-03
   0.10850   0.54101367E-03
   0.10950   0.55219448E-03
   0.11050   0.55432419E-03
   0.11150   0.54668210E-03
   0.11250   0.53147855E-03
   0.11350   0.51248737E-03
   0.11450   0.49335061E-03
   0.11550   0.47654461E-03
   0.11650   0.46311910E-03
   0.11750   0.45284044E-03
   0.11850   0.44442291E-03
   0.11950   0.43577087E-03
   0.12050   0.42433495E-03
   0.12150   0.40772647E-03
   0.12250   0.38458197E-03
   0.12350   0.35538277E-03
   0.12450   0.32279367E-03
   0.12550   0.29138336E-03
   0.12650   0.26712171E-03
   0.12750   0.25719279E-03
   0.12850   0.27004268E-03
   0.12950   0.31424724E-03
   0.13050   0.39376738E-03
   0.13150   0.50066662E-03
   0.13250   0.61507546E-03
   0.13350   0.71719912E-03
   0.13450   0.79715607E-03
   0.13550   0.85391977E-03
   0.13650   0.89062989E-03
   0.13750   0.91163808E-03
   0.13850   0.92117209E-03
   0.13950   0.92277437E-03
   0.14050   0.91915258E-03
   0.14150   0.91225340E-03
   0.14250   0.90341835E-03
   0.14350   0.89354074E-03
   0.14450   0.88319281E-03
   0.14550   0.87272044E-03
   0.14650   0.86231326E-03
   0.14750   0.85205917E-03
   0.14850   0.84198738E-03
   0.14950   0.83210296E-03
   0.15050   0.82241243E-03
   0.15150   0.81293989E-03
   0.15250   0.80373336E-03
   0.15350   0.79486199E-03
   0.15450   0.78640680E-03
   0.15550   0.77844714E-03
   0.15650   0.77104685E-03
   0.15750   0.76424208E-03
   0.15850   0.75803441E-03
   0.15950   0.75238838E-03
   0.16050   0.74723572E-03
   0.16150   0.74248383E-03
   0.16250   0.73802809E-03
   0.16350   0.73376566E-03
   0.16450   0.72960759E-03
   0.16550   0.72548795E-03
   0.16650   0.72136580E-03
   0.16750   0.71721920E-03
   0.16850   0.71302790E-03
   0.16950   0.70874050E-03
   0.17050   0.70421572E-03
   0.17150   0.69910672E-03
   0.17250   0.69259322E-03
   0.17350   0.68261713E-03
   0.17450   0.66319300E-03
   0.17550   0.61722699E-03
   0.17650   0.54513320E-03
   0.17750   0.48510238E-03
   0.17850   0.44021447E-03
   0.17950   0.40528431E-03
   0.18050   0.37704094E-03
   0.18150   0.35356046E-03
   0.18250   0.33364410E-03
   0.18350   0.31649959E-03
   0.18450   0.30157683E-03
   0.18550   0.28847824E-03
   0.18650   0.27690665E-03
   0.18750   0.26663375E-03
   0.18850   0.25747990E-03
   0.18950   0.24930137E-03
   0.19050   0.24198164E-03
   0.19150   0.23542574E-03
   0.19250   0.22955649E-03
   0.19350   0.22431207E-03
   0.19450   0.21964460E-03
   0.19550   0.21551941E-03
   0.19650   0.21191509E-03
   0.19750   0.20882416E-03
   0.19850   0.20625470E-03
   0.19950   0.20423319E-03
   0.20050   0.20280945E-03
   0.20150   0.20206465E-03
   0.20250   0.20212489E-03
   0.20350   0.20318433E-03
   0.20450   0.20554570E-03
   0.20550   0.20969439E-03
   0.20650   0.21644015E-03
   0.20750   0.22720511E-03
   0.20850   0.24465082E-03
   0.20950   0.27415573E-03
   0.21050   0.32756026E-03
   0.21150   0.43255021E-03
   0.21250   0.64038450E-03
   0.21350   0.83203870E-03
   0.21450   0.82955067E-03
   0.21550   0.60791103E-03
   0.21650   0.42333751E-03
   0.21750   0.35324797E-03
   0.21850   0.34279146E-03
   0.21950   0.34297508E-03
   0.22050   0.34335212E-03
   0.22150   0.34379942E-03
   0.22250   0.34469317E-03
   0.22350   0.34627478E-03
   0.22450   0.34869945E-03
   0.22550   0.35209072E-03
   0.22650   0.35657405E-03
   0.22750   0.36230037E-03
   0.22850   0.36946786E-03
   0.22950   0.37834872E-03
   0.23050   0.38932535E-03
   0.23150   0.40293459E-03
   0.23250   0.41985488E-03
   0.23350   0.44022329E-03
   0.23450   0.45733948E-03
   0.23550   0.45051469E-03
   0.23650   0.42974838E-03
   0.23750   0.40847994E-03
   0.23850   0.38904697E-03
   0.23950   0.37154698E-03
   0.24050   0.35574814E-03
   0.24150   0.34140245E-03
   0.24250   0.32829781E-03
   0.24350   0.31626079E-03
   0.24450   0.30515058E-03
   0.24550   0.29485236E-03
   0.24650   0.28527182E-03
   0.24750   0.27633083E-03
   0.24850   0.26796403E-03
   0.24950   0.26011642E-03
   0.25050   0.25274110E-03
   0.25150   0.24579788E-03
   0.25250   0.23925184E-03
   0.25350   0.23307232E-03
   0.25450   0.22723227E-03
   0.25550   0.22170741E-03
   0.25650   0.21647588E-03
   0.25750   0.21151781E-03
   0.25850   0.20681509E-03
   0.25950   0.20235110E-03
   0.26050   0.19811062E-03
   0.26150   0.19407971E-03
   0.26250   0.19024560E-03
   0.26350   0.18659668E-03
   0.26450   0.18312244E-03
   0.26550   0.17981332E-03
   0.26650   0.17666079E-03
   0.26750   0.17365717E-03
   0.26850   0.17079561E-03
   0.26950   0.16807001E-03
   0.27050   0.16547485E-03
   0.27150   0.16300521E-03
   0.27250   0.16065665E-03
   0.27350   0.15842509E-03
   0.27450   0.15630676E-03
   0.27550   0.15429821E-03
   0.27650   0.15239613E-03
   0.27750   0.15059745E-03
   0.27850   0.14889924E-03
   0.27950   0.14729875E-03
   0.28050   0.14579338E-03
   0.28150   0.14438071E-03
   0.28250   0.14305847E-03
   0.28350   0.14182455E-03
   0.28450   0.14067702E-03
   0.28550   0.13961400E-03
   0.28650   0.13863364E-03
   0.28750   0.13773386E-03
   0.28850   0.13691213E-03
   0.28950   0.13616486E-03
   0.29050   0.13548655E-03
   0.29150   0.13486813E-03
   0.29250   0.13429378E-03
   0.29350   0.13373450E-03
   0.29450   0.13313393E-03
   0.29550   0.13237270E-03
   0.29650   0.13116557E-03
   0.29750   0.12870024E-03
   0.29850   0.12230332E-03
   0.29950   0.10863130E-03
   0.30050   0.94919866E-04
   0.30150   0.84549087E-04
   0.30250   0.76579709E-04
   0.30350   0.70217662E-04
   0.30450   0.64986554E-04
   0.30550   0.60590985E-04
   0.30650   0.56837092E-04
   0.30750   0.53591240E-04
   0.30850   0.50757590E-04
   0.30950   0.48265210E-04
   0.31050   0.46060264E-04
   0.31150   0.44101085E-04
   0.31250   0.42354928E-04
   0.31350   0.40795781E-04
   0.31450   0.39402843E-04
   0.31550   0.38159455E-04
   0.31650   0.37052359E-04
   0.31750   0.36071175E-04
   0.31850   0.35208035E-04
   0.31950   0.34457389E-04
   0.32050   0.33815915E-04
   0.32150   0.33282566E-04
   0.32250   0.32858748E-04
   0.32350   0.32548662E-04
   0.32450   0.32359876E-04
   0.32550   0.32304160E-04
   0.32650   0.32398792E-04
   0.32750   0.32668439E-04
   0.32850   0.33148019E-04
   0.32950   0.33887045E-04
   0.33050   0.34956247E-04
   0.33150   0.36457877E-04
   0.33250   0.38541792E-04
   0.33350   0.41430143E-04
   0.33450   0.45452834E-04
   0.33550   0.51086048E-04
   0.33650   0.58931724E-04
   0.33750   0.69319081E-04
   0.33850   0.80115373E-04
   0.33950   0.78427744E-04
   0.34050   0.35773734E-04
   0.34150   0.80298832E-05
   0.34250   0.63882668E-04
   0.34350   0.85265368E-04
   0.34450   0.75490636E-04
   0.34550   0.62068750E-04
   0.34650   0.51618423E-04
   0.34750   0.44240009E-04
   0.34850   0.39089278E-04
   0.34950   0.35454585E-04
   0.35050   0.32851862E-04
   0.35150   0.30965835E-04
   0.35250   0.29591198E-04
   0.35350   0.28592553E-04
   0.35450   0.27879385E-04
   0.35550   0.27390746E-04
   0.35650   0.27086086E-04
   0.35750   0.26940172E-04
   0.35850   0.26941507E-04
   0.35950   0.27095715E-04
   0.36050   0.27441558E-04
   0.36150   0.28114186E-04
   0.36250   0.29546540E-04
   0.36350   0.31899173E-04
   0.36450   0.34177719E-04
   0.36550   0.36192130E-04
   0.36650   0.38058624E-04
   0.36750   0.39868159E-04
   0.36850   0.41684296E-04
   0.36950   0.43556232E-04
   0.37050   0.45526867E-04
   0.37150   0.47637917E-04
   0.37250   0.49933798E-04
   0.37350   0.52465373E-04
   0.37450   0.55294386E-04
   0.37550   0.58499525E-04
   0.37650   0.62185587E-04
   0.37750   0.66498098E-04
   0.37850   0.71647089E-04
   0.37950   0.77940895E-04
   0.38050   0.85773383E-04
   0.38150   0.94838273E-04
   0.38250   0.99878773E-04
   0.38350   0.98386270E-04
   0.38450   0.95205243E-04
   0.38550   0.91957678E-04
   0.38650   0.88943591E-04
   0.38750   0.86203567E-04
   0.38850   0.83722749E-04
   0.38950   0.81475853E-04
   0.39050   0.79438323E-04
   0.39150   0.77588942E-04
   0.39250   0.75910131E-04
   0.39350   0.74387593E-04
   0.39450   0.73009913E-04
   0.39550   0.71768125E-04
   0.39650   0.70655478E-04
   0.39750   0.69667207E-04
   0.39850   0.68800415E-04
   0.39950   0.68054032E-04
   0.40050   0.67428897E-04
   0.40150   0.66927823E-04
   0.40250   0.66555833E-04
   0.40350   0.66320412E-04
   0.40450   0.66231842E-04
   0.40550   0.66303568E-04
   0.40650   0.66552413E-04
   0.40750   0.66998342E-04
   0.40850   0.67662804E-04
   0.40950   0.68563131E-04
   0.41050   0.69695765E-04
   0.41150   0.70985261E-04
   0.41250   0.72114111E-04
   0.41350   0.71909519E-04
   0.41450   0.67821005E-04
   0.41550   0.62476858E-04
   0.41650   0.58584505E-04
   0.41750   0.53974254E-04
   0.41850   0.45801120E-04
   0.41950   0.35096487E-04
   0.42050   0.28184017E-04
   0.42150   0.24449841E-04
   0.42250   0.20468440E-04
   0.42350   0.16817263E-04
   0.42450   0.14163993E-04
   0.42550   0.12417029E-04
   0.42650   0.11298247E-04
   0.42750   0.10581474E-04
   0.42850   0.10118913E-04
   0.42950   0.98198771E-05
   0.43050   0.96294161E-05
   0.43150   0.95140167E-05
   0.43250   0.94529532E-05
   0.43350   0.94332154E-05
   0.43450   0.94465213E-05
   0.43550   0.94875486E-05
   0.43650   0.95528667E-05
   0.43750   0.96402873E-05
   0.43850   0.97484526E-05
   0.43950   0.98765795E-05
   0.44050   0.10024294E-04
   0.44150   0.10191528E-04
   0.44250   0.10378446E-04
   0.44350   0.10585404E-04
   0.44450   0.10812922E-04
   0.44550   0.11061666E-04
   0.44650   0.11332449E-04
   0.44750   0.11626224E-04
   0.44850   0.11944101E-04
   0.44950   0.12287354E-04
   0.45050   0.12657450E-04
   0.45150   0.13056073E-04
   0.45250   0.13485167E-04
   0.45350   0.13946987E-04
   0.45450   0.14444161E-04
   0.45550   0.14979776E-04
   0.45650   0.15557474E-04
   0.45750   0.16181584E-04
   0.45850   0.16857271E-04
   0.45950   0.17590728E-04
   0.46050   0.18389390E-04
   0.46150   0.19262196E-04
   0.46250   0.20219844E-04
   0.46350   0.21275038E-04
   0.46450   0.22442609E-04
   0.46550   0.23739307E-04
   0.46650   0.25182813E-04
   0.46750   0.26789061E-04
   0.46850   0.28565819E-04
   0.46950   0.30498408E-04
   0.47050   0.32519245E-04
   0.47150   0.34447097E-04
   0.47250   0.35886729E-04
   0.47350   0.36176029E-04
   0.47450   0.34994580E-04
   0.47550   0.35525441E-04
   0.47650   0.48907004E-04
   0.47750   0.82014034E-04
   0.47850   0.10815534E-03
   0.47950   0.90871938E-04
   0.48050   0.53595570E-04
   0.48150   0.29040291E-04
   0.48250   0.20253865E-04
   0.48350   0.23560622E-04
   0.48450   0.39079743E-04
   0.48550   0.71881303E-04
   0.48650   0.12226323E-03
   0.48750   0.14614918E-03
   0.48850   0.11027935E-03
   0.48950   0.69654903E-04
   0.49050   0.46004618E-04
   0.49150   0.34029803E-04
   0.49250   0.28033197E-04
   0.49350   0.24456125E-04
   0.49450   0.21061072E-04
   0.49550   0.17130094E-04
   0.49650   0.16595674E-04
   0.49750   0.34187262E-04
   0.49850   0.94546340E-04
   0.49950   0.19964477E-03
   0.50050   0.30854039E-03
   0.50150   0.38171199E-03
   0.50250   0.41029110E-03
   0.50350   0.41275291E-03
   0.50450   0.44515601E-03
   0.50550   0.11570040E-02
   0.50650   0.16023801E-02
   0.50750   0.12543779E-02
   0.50850   0.20448335E-02
   0.50950   0.99425681E-03
   0.51050   0.15730445E-02
   0.51150   0.13936245E-01
   0.51250   0.19589653E-02
   0.51350   0.10000564E-02
   0.51450   0.10339947E-02
   0.51550   0.17381764E-02
   0.51650   0.27407827E-02
   0.51750   0.33934989E-02
   0.51850   0.33643132E-02
   0.51950   0.28863102E-02
   0.52050   0.25057530E-02
   0.52150   0.24702565E-02
   0.52250   0.27401596E-02
   0.52350   0.30642573E-02
   0.52450   0.31870776E-02
   0.52550   0.30464593E-02
   0.52650   0.27582233E-02
   0.52750   0.24285666E-02
   0.52850   0.21070600E-02
   0.52950   0.18370954E-02
   0.53050   0.16593727E-02
   0.53150   0.15807411E-02
   0.53250   0.15552803E-02
   0.53350   0.14718327E-02
   0.53450   0.13420534E-02
   0.53550   0.12431181E-02
   0.53650   0.11704193E-02
   0.53750   0.11091498E-02
   0.53850   0.10487895E-02
   0.53950   0.98486140E-03
   0.54050   0.91806345E-03
   0.54150   0.85133378E-03
   0.54250   0.78694470E-03
   0.54350   0.72538585E-03
   0.54450   0.66601369E-03
   0.54550   0.60832076E-03
   0.54650   0.55269856E-03
   0.54750   0.50029979E-03
   0.54850   0.45238817E-03
   0.54950   0.40978906E-03
   0.55050   0.37275310E-03
   0.55150   0.34116415E-03
   0.55250   0.31484629E-03
   0.55350   0.29373766E-03
   0.55450   0.27783777E-03
   0.55550   0.26700771E-03
   0.55650   0.26078775E-03
   0.55750   0.25834533E-03
   0.55850   0.25856361E-03
   0.55950   0.26021749E-03
   0.56050   0.26217298E-03
   0.56150   0.26355495E-03
   0.56250   0.26384083E-03
   0.56350   0.26285902E-03
   0.56450   0.26070408E-03
   0.56550   0.25761040E-03
   0.56650   0.25383424E-03
   0.56750   0.24957940E-03
   0.56850   0.24497471E-03
   0.56950   0.24009187E-03
   0.57050   0.23498223E-03
   0.57150   0.22971208E-03
   0.57250   0.22438270E-03
   0.57350   0.21913114E-03
   0.57450   0.21411656E-03
   0.57550   0.20950167E-03
   0.57650   0.20543866E-03
   0.57750   0.20206600E-03
   0.57850   0.19951721E-03
   0.57950   0.19793978E-03
   0.58050   0.19752129E-03
   0.58150   0.19851890E-03
   0.58250   0.20128900E-03
   0.58350   0.20630874E-03
   0.58450   0.21415942E-03
   0.58550   0.22536596E-03
   0.58650   0.23975511E-03
   0.58750   0.25441183E-03
   0.58850   0.25877968E-03
   0.58950   0.23061071E-03
   0.59050   0.15847682E-03
   0.59150   0.86203610E-04
   0.59250   0.56952667E-04
   0.59350   0.55281085E-04
   0.59450   0.59659025E-04
   0.59550   0.63479165E-04
   0.59650   0.66187429E-04
   0.59750   0.68234811E-04
   0.59850   0.69992544E-04
   0.59950   0.71675320E-04
   0.60050   0.73399824E-04
   0.60150   0.75230557E-04
   0.60250   0.77205681E-04
   0.60350   0.79351244E-04
   0.60450   0.81689708E-04
   0.60550   0.84245672E-04
   0.60650   0.87049957E-04
   0.60750   0.90142661E-04
   0.60850   0.93575574E-04
   0.60950   0.97414282E-04
   0.61050   0.10174072E-03
   0.61150   0.10665687E-03
   0.61250   0.11229061E-03
   0.61350   0.11880432E-03
   0.61450   0.12640315E-03
   0.61550   0.13531887E-03
   0.61650   0.14560016E-03
   0.61750   0.15546409E-03
   0.61850   0.15593288E-03
   0.61950   0.14702136E-03
   0.62050   0.13824370E-03
   0.62150   0.13177287E-03
   0.62250   0.12868816E-03
   0.62350   0.12824456E-03
   0.62450   0.12806983E-03
   0.62550   0.12790029E-03
   0.62650   0.12783316E-03
   0.62750   0.12791014E-03
   0.62850   0.12813482E-03
   0.62950   0.12849476E-03
   0.63050   0.12897215E-03
   0.63150   0.12954860E-03
   0.63250   0.13020683E-03
   0.63350   0.13093105E-03
   0.63450   0.13170677E-03
   0.63550   0.13252032E-03
   0.63650   0.13335858E-03
   0.63750   0.13420872E-03
   0.63850   0.13505822E-03
   0.63950   0.13589492E-03
   0.64050   0.13670746E-03
   0.64150   0.13748542E-03
   0.64250   0.13821974E-03
   0.64350   0.13890305E-03
   0.64450   0.13952985E-03
   0.64550   0.14009676E-03
   0.64650   0.14060260E-03
   0.64750   0.14104843E-03
   0.64850   0.14143749E-03
   0.64950   0.14177506E-03
   0.65050   0.14206837E-03
   0.65150   0.14232630E-03
   0.65250   0.14255922E-03
   0.65350   0.14277874E-03
   0.65450   0.14299749E-03
   0.65550   0.14322910E-03
   0.65650   0.14348807E-03
   0.65750   0.14378983E-03
   0.65850   0.14415097E-03
   0.65950   0.14458927E-03
   0.66050   0.14512416E-03
   0.66150   0.14577684E-03
   0.66250   0.14657059E-03
   0.66350   0.14753097E-03
   0.66450   0.14868595E-03
   0.66550   0.15006597E-03
   0.66650   0.15170392E-03
   0.66750   0.15363513E-03
   0.66850   0.15589742E-03
   0.66950   0.15853104E-03
   0.67050   0.16157908E-03
   0.67150   0.16508788E-03
   0.67250   0.16910788E-03
   0.67350   0.17369501E-03
   0.67450   0.17891258E-03
   0.67550   0.18483406E-03
   0.67650   0.19154661E-03
   0.67750   0.19915588E-03
   0.67850   0.20779175E-03
   0.67950   0.21761500E-03
   0.68050   0.22882399E-03
   0.68150   0.24165788E-03
   0.68250   0.25639081E-03
   0.68350   0.27333145E-03
   0.68450   0.29341079E-03
   0.68550   0.34546136E-03
   0.68650   0.62413653E-03
   0.68750   0.39817882E-03
   0.68850   0.33757061E-03
   0.68950   0.30219098E-03
   0.69050   0.28334017E-03
   0.69150   0.27802648E-03
   0.69250   0.28749008E-03
   0.69350   0.31856308E-03
   0.69450   0.39000975E-03
   0.69550   0.54088840E-03
   0.69650   0.76288456E-03
   0.69750   0.86569786E-03
   0.69850   0.85454027E-03
   0.69950   0.88400306E-03
   0.70050   0.11312618E-02
   0.70150   0.10980392E-01
   0.70250   0.17300891E-02
   0.70350   0.29248374E-02
   0.70450   0.20424025E-01
   0.70550   0.10595593E-01
   0.70650   0.35138458E-02
   0.70750   0.25439507E-02
   0.70850   0.18269113E-02
   0.70950   0.12527008E-02
   0.71050   0.92614163E-03
   0.71150   0.76531962E-03
   0.71250   0.70108630E-03
   0.71350   0.68362872E-03
   0.71450   0.67745743E-03
   0.71550   0.66617026E-03
   0.71650   0.64771832E-03
   0.71750   0.62558183E-03
   0.71850   0.60310040E-03
   0.71950   0.58175978E-03
   0.72050   0.56140492E-03
   0.72150   0.54090604E-03
   0.72250   0.51876908E-03
   0.72350   0.49366278E-03
   0.72450   0.46484635E-03
   0.72550   0.43239928E-03
   0.72650   0.39721638E-03
   0.72750   0.36084742E-03
   0.72850   0.32526723E-03
   0.72950   0.29262775E-03
   0.73050   0.26510499E-03
   0.73150   0.24525091E-03
   0.73250   0.23692536E-03
   0.73350   0.23774309E-03
   0.73450   0.24119453E-03
   0.73550   0.24635455E-03
   0.73650   0.25287914E-03
   0.73750   0.26016138E-03
   0.73850   0.26753024E-03
   0.73950   0.27439574E-03
   0.74050   0.28031587E-03
   0.74150   0.28501294E-03
   0.74250   0.28836061E-03
   0.74350   0.29035565E-03
   0.74450   0.29108307E-03
   0.74550   0.29068251E-03
   0.74650   0.28931964E-03
   0.74750   0.28716656E-03
   0.74850   0.28439154E-03
   0.74950   0.28115633E-03
   0.75050   0.27761838E-03
   0.75150   0.27393541E-03
   0.75250   0.27026967E-03
   0.75350   0.26679153E-03
   0.75450   0.26368126E-03
   0.75550   0.26112949E-03
   0.75650   0.25933571E-03
   0.75750   0.25850520E-03
   0.75850   0.25884423E-03
   0.75950   0.26055376E-03
   0.76050   0.26382247E-03
   0.76150   0.26881913E-03
   0.76250   0.27568566E-03
   0.76350   0.28453066E-03
   0.76450   0.29542475E-03
   0.76550   0.30839755E-03
   0.76650   0.32343683E-03
   0.76750   0.34049005E-03
   0.76850   0.35946799E-03
   0.76950   0.38025028E-03
   0.77050   0.40269294E-03
   0.77150   0.42663718E-03
   0.77250   0.45191901E-03
   0.77350   0.47837992E-03
   0.77450   0.50587702E-03
   0.77550   0.53429289E-03
   0.77650   0.56354224E-03
   0.77750   0.59356733E-03
   0.77850   0.62429387E-03
   0.77950   0.65541791E-03
   0.78050   0.68535045E-03
   0.78150   0.70530950E-03
   0.78250   0.68785856E-03
   0.78350   0.64593065E-03
   0.78450   0.60905138E-03
   0.78550   0.57971402E-03
   0.78650   0.55617583E-03
   0.78750   0.53698471E-03
   0.78850   0.52115769E-03
   0.78950   0.50803565E-03
   0.79050   0.49716950E-03
   0.79150   0.48824778E-03
   0.79250   0.48105180E-03
   0.79350   0.47542577E-03
   0.79450   0.47125662E-03
   0.79550   0.46845924E-03
   0.79650   0.46696555E-03
   0.79750   0.46671592E-03
   0.79850   0.46765310E-03
   0.79950   0.46971804E-03
   0.80050   0.47284772E-03
   0.80150   0.47697450E-03
   0.80250   0.48202690E-03
   0.80350   0.48793133E-03
   0.80450   0.49461360E-03
   0.80550   0.50200010E-03
   0.80650   0.51001820E-03
   0.80750   0.51859533E-03
   0.80850   0.52765763E-03
   0.80950   0.53712889E-03
   0.81050   0.54693059E-03
   0.81150   0.55698561E-03
   0.81250   0.56722615E-03
   0.81350   0.57760847E-03
   0.81450   0.58813614E-03
   0.81550   0.59889461E-03
   0.81650   0.61010104E-03
   0.81750   0.62217773E-03
   0.81850   0.63586805E-03
   0.81950   0.65244280E-03
   0.82050   0.67413563E-03
   0.82150   0.70531276E-03
   0.82250   0.75691077E-03
   0.82350   0.87942259E-03
   0.82450   0.22844225E-02
   0.82550   0.12175043E-02
   0.82650   0.11661706E-02
   0.82750   0.14035251E-02
   0.82850   0.18117679E-02
   0.82950   0.26672953E-02
   0.83050   0.64370693E-02
   0.83150   0.17028950E-01
   0.83250   0.64275446E-02
   0.83350   0.47136163E-02
   0.83450   0.49344203E-02
   0.83550   0.76452508E-02
   0.83650   0.27763443E-01
   0.83750   0.64966306E-01
   0.83850   0.18591031E+00
   0.83950   0.23552833E+00
   0.84050   0.11657617E+00
   0.84150   0.44465337E-01
   0.84250   0.23508854E-01
   0.84350   0.21293826E-01
   0.84450   0.18293109E-01
   0.84550   0.14629358E-01
   0.84650   0.12223089E-01
   0.84750   0.10972138E-01
   0.84850   0.10387612E-01
   0.84950   0.10057273E-01
   0.85050   0.97890235E-02
   0.85150   0.95029380E-02
   0.85250   0.92192097E-02
   0.85350   0.90024220E-02
   0.85450   0.88930512E-02
   0.85550   0.88924225E-02
   0.85650   0.89781107E-02
   0.85750   0.91207772E-02
   0.85850   0.92942249E-02
   0.85950   0.94795208E-02
   0.86050   0.96664019E-02
   0.86150   0.98523432E-02
   0.86250   0.10039532E-01
   0.86350   0.10232032E-01
   0.86450   0.10434412E-01
   0.86550   0.10650498E-01
   0.86650   0.10881563E-01
   0.86750   0.11125890E-01
   0.86850   0.11381670E-01
   0.86950   0.11651445E-01
   0.87050   0.11943433E-01
   0.87150   0.12267548E-01
   0.87250   0.12629142E-01
   0.87350   0.13025594E-01
   0.87450   0.13448394E-01
   0.87550   0.13889030E-01
   0.87650   0.14344154E-01
   0.87750   0.14816363E-01
   0.87850   0.15310666E-01
   0.87950   0.15829863E-01
   0.88050   0.16371947E-01
   0.88150   0.16930496E-01
   0.88250   0.17497299E-01
   0.88350   0.18065717E-01
   0.88450   0.18633362E-01
   0.88550   0.19203166E-01
   0.88650   0.19782644E-01
   0.88750   0.20381836E-01
   0.88850   0.21010788E-01
   0.88950   0.21677550E-01
   0.89050   0.22387471E-01
   0.89150   0.23143934E-01
   0.89250   0.23949968E-01
   0.89350   0.24809815E-01
   0.89450   0.25729543E-01
   0.89550   0.26716495E-01
   0.89650   0.27778242E-01
   0.89750   0.28923208E-01
   0.89850   0.30168122E-01
   0.89950   0.31566754E-01
   0.90050   0.33288080E-01
   0.90150   0.35338562E-01
   0.90250   0.37115876E-01
   0.90350   0.38604788E-01
   0.90450   0.39936401E-01
   0.90550   0.41119918E-01
   0.90650   0.42154476E-01
   0.90750   0.43056991E-01
   0.90850   0.43867633E-01
   0.90950   0.44644702E-01
   0.91050   0.45455240E-01
   0.91150   0.46368055E-01
   0.91250   0.47451679E-01
   0.91350   0.48775431E-01
   0.91450   0.50410490E-01
   0.91550   0.52428789E-01
   0.91650   0.54899171E-01
   0.91750   0.57881795E-01
   0.91850   0.61422829E-01
   0.91950   0.65553650E-01
   0.92050   0.70302732E-01
   0.92150   0.75741380E-01
   0.92250   0.82165644E-01
   0.92350   0.91244891E-01
   0.92450   0.10459899E+00
   0.92550   0.10240849E+00
   0.92650   0.10783672E+00
   0.92750   0.12184335E+00
   0.92850   0.16220281E+00
   0.92950   0.15067241E+00
   0.93050   0.15498766E+00
   0.93150   0.17331241E+00
   0.93250   0.20874956E+00
   0.93350   0.24646260E+00
   0.93450   0.27461836E+00
   0.93550   0.31191495E+00
   0.93650   0.36320165E+00
   0.93750   0.40237567E+00
   0.93850   0.41922113E+00
   0.93950   0.42684039E+00
   0.94050   0.43524501E+00
   0.94150   0.45307437E+00
   0.94250   0.45909643E+00
   0.94350   0.41666922E+00
   0.94450   0.38770139E+00
   0.94550   0.37966961E+00
   0.94650   0.36697996E+00
   0.94750   0.32812926E+00
   0.94850   0.30072498E+00
   0.94950   0.29197475E+00
   0.95050   0.29233995E+00
   0.95150   0.29719552E+00
   0.95250   0.30466741E+00
   0.95350   0.31173810E+00
   0.95450   0.31538087E+00
   0.95550   0.31961781E+00
   0.95650   0.32658640E+00
   0.95750   0.33368659E+00
   0.95850   0.34109238E+00
   0.95950   0.34933838E+00
   0.96050   0.35652429E+00
   0.96150   0.36041042E+00
   0.96250   0.36111310E+00
   0.96350   0.35995761E+00
   0.96450   0.35894328E+00
   0.96550   0.36000764E+00
   0.96650   0.36359730E+00
   0.96750   0.36905491E+00
   0.96850   0.37633604E+00
   0.96950   0.38627437E+00
   0.97050   0.39868507E+00
   0.97150   0.41052043E+00
   0.97250   0.41720009E+00
   0.97350   0.41737559E+00
   0.97450   0.41421893E+00
   0.97550   0.41176841E+00
   0.97650   0.41268736E+00
   0.97750   0.41827708E+00
   0.97850   0.42819744E+00
   0.97950   0.43930566E+00
   0.98050   0.44682452E+00
   0.98150   0.45129043E+00
   0.98250   0.45762795E+00
   0.98350   0.46539670E+00
   0.98450   0.46832529E+00
   0.98550   0.46317276E+00
   0.98650   0.45528525E+00
   0.98750   0.45229015E+00
   0.98850   0.45881915E+00
   0.98950   0.47726268E+00
   0.99050   0.50782472E+00
   0.99150   0.53914410E+00
   0.99250   0.53420383E+00
   0.99350   0.50402588E+00
   0.99450   0.49255103E+00
   0.99550   0.49623612E+00
   0.99650   0.50707304E+00
   0.99750   0.51627815E+00
   0.99850   0.51725769E+00
   0.99950   0.53206056E+00
