# Transmission, k-averaged
# Date: 2021-05-13
#   E [eV]           T [G0]
   0.00050   0.38239203E-01
   0.00150   0.27178193E-01
   0.00250   0.10273514E-01
   0.00350   0.11099405E-02
   0.00450   0.50773615E-04
   0.00550   0.42212872E-04
   0.00650   0.56633545E-03
   0.00750   0.33158667E-02
   0.00850   0.69062919E-02
   0.00950   0.72935140E-02
   0.01050   0.11208238E-01
   0.01150   0.12697079E-01
   0.01250   0.59214178E-02
   0.01350   0.45235675E-01
   0.01450   0.66071022E-02
   0.01550   0.55223228E-02
   0.01650   0.35036013E-01
   0.01750   0.91086170E-02
   0.01850   0.43280586E-02
   0.01950   0.83087450E-02
   0.02050   0.52995887E-01
   0.02150   0.81494218E-02
   0.02250   0.43194867E-02
   0.02350   0.62672417E-02
   0.02450   0.31823371E-01
   0.02550   0.24804890E-01
   0.02650   0.62258746E-02
   0.02750   0.45527928E-02
   0.02850   0.69259852E-02
   0.02950   0.28843516E-01
   0.03050   0.55581339E-01
   0.03150   0.98371990E-02
   0.03250   0.54378570E-02
   0.03350   0.56498866E-02
   0.03450   0.10710645E-01
   0.03550   0.56047112E-01
   0.03650   0.62764905E-01
   0.03750   0.13125005E-01
   0.03850   0.75398101E-02
   0.03950   0.75662415E-02
   0.04050   0.12601494E-01
   0.04150   0.43889999E-01
   0.04250   0.25759938E+00
   0.04350   0.53484410E-01
   0.04450   0.35264086E-01
   0.04550   0.56644548E-01
   0.04650   0.11241584E+00
   0.04750   0.23214862E+00
   0.04850   0.48600096E+00
   0.04950   0.72796088E+00
   0.05050   0.60992134E+00
   0.05150   0.44187868E+00
   0.05250   0.36058417E+00
   0.05350   0.34315458E+00
   0.05450   0.37558261E+00
   0.05550   0.46113783E+00
   0.05650   0.60527110E+00
   0.05750   0.76873779E+00
   0.05850   0.83084100E+00
   0.05950   0.74835736E+00
   0.06050   0.62818003E+00
   0.06150   0.54466653E+00
   0.06250   0.50986075E+00
   0.06350   0.51995671E+00
   0.06450   0.57267976E+00
   0.06550   0.66473365E+00
   0.06650   0.77656239E+00
   0.06750   0.85667175E+00
   0.06850   0.85314530E+00
   0.06950   0.77892435E+00
   0.07050   0.69047844E+00
   0.07150   0.62569898E+00
   0.07250   0.59604800E+00
   0.07350   0.60230970E+00
   0.07450   0.64300126E+00
   0.07550   0.71350253E+00
   0.07650   0.79834950E+00
   0.07750   0.86421454E+00
   0.07850   0.87454677E+00
   0.07950   0.82557744E+00
   0.08050   0.75000060E+00
   0.08150   0.68229896E+00
   0.08250   0.63999742E+00
   0.08350   0.62833643E+00
   0.08450   0.64787036E+00
   0.08550   0.69676125E+00
   0.08650   0.76727289E+00
   0.08750   0.83833843E+00
   0.08850   0.87500352E+00
   0.08950   0.85165906E+00
   0.09050   0.78015357E+00
   0.09150   0.69949543E+00
   0.09250   0.65158546E+00
   0.09350   0.64939642E+00
   0.09450   0.67809278E+00
   0.09550   0.72779757E+00
   0.09650   0.78753054E+00
   0.09750   0.84149843E+00
   0.09850   0.87303060E+00
   0.09950   0.87406158E+00
   0.10050   0.85037166E+00
   0.10150   0.81613970E+00
   0.10250   0.78484523E+00
   0.10350   0.76482844E+00
   0.10450   0.75949168E+00
   0.10550   0.76877159E+00
   0.10650   0.79004651E+00
   0.10750   0.81839448E+00
   0.10850   0.84696639E+00
   0.10950   0.86837906E+00
   0.11050   0.87724471E+00
   0.11150   0.87246424E+00
   0.11250   0.85745668E+00
   0.11350   0.83817303E+00
   0.11450   0.82056105E+00
   0.11550   0.80898166E+00
   0.11650   0.80576736E+00
   0.11750   0.81135947E+00
   0.11850   0.82451767E+00
   0.11950   0.84245706E+00
   0.12050   0.86108214E+00
   0.12150   0.87564361E+00
   0.12250   0.88200086E+00
   0.12350   0.87817979E+00
   0.12450   0.86541444E+00
   0.12550   0.84798676E+00
   0.12650   0.83194566E+00
   0.12750   0.82332450E+00
   0.12850   0.82614481E+00
   0.12950   0.84002352E+00
   0.13050   0.85839778E+00
   0.13150   0.87130141E+00
   0.13250   0.87359560E+00
   0.13350   0.86870301E+00
   0.13450   0.86271214E+00
   0.13550   0.85878372E+00
   0.13650   0.85712278E+00
   0.13750   0.85689390E+00
   0.13850   0.85734236E+00
   0.13950   0.85804278E+00
   0.14050   0.85881716E+00
   0.14150   0.85961741E+00
   0.14250   0.86044747E+00
   0.14350   0.86132103E+00
   0.14450   0.86223894E+00
   0.14550   0.86317950E+00
   0.14650   0.86409706E+00
   0.14750   0.86492896E+00
   0.14850   0.86560792E+00
   0.14950   0.86607754E+00
   0.15050   0.86630619E+00
   0.15150   0.86629725E+00
   0.15250   0.86609167E+00
   0.15350   0.86576319E+00
   0.15450   0.86540639E+00
   0.15550   0.86512089E+00
   0.15650   0.86499411E+00
   0.15750   0.86508614E+00
   0.15850   0.86541927E+00
   0.15950   0.86597395E+00
   0.16050   0.86669177E+00
   0.16150   0.86748457E+00
   0.16250   0.86824912E+00
   0.16350   0.86888427E+00
   0.16450   0.86930835E+00
   0.16550   0.86947340E+00
   0.16650   0.86937404E+00
   0.16750   0.86904979E+00
   0.16850   0.86857957E+00
   0.16950   0.86807084E+00
   0.17050   0.86764461E+00
   0.17150   0.86742139E+00
   0.17250   0.86751318E+00
   0.17350   0.86803728E+00
   0.17450   0.86920089E+00
   0.17550   0.87151575E+00
   0.17650   0.87466401E+00
   0.17750   0.87713969E+00
   0.17850   0.87888861E+00
   0.17950   0.88013196E+00
   0.18050   0.88101262E+00
   0.18150   0.88162649E+00
   0.18250   0.88204598E+00
   0.18350   0.88233042E+00
   0.18450   0.88252884E+00
   0.18550   0.88268119E+00
   0.18650   0.88281769E+00
   0.18750   0.88295823E+00
   0.18850   0.88311213E+00
   0.18950   0.88327867E+00
   0.19050   0.88344795E+00
   0.19150   0.88360226E+00
   0.19250   0.88371831E+00
   0.19350   0.88376927E+00
   0.19450   0.88372684E+00
   0.19550   0.88356328E+00
   0.19650   0.88325262E+00
   0.19750   0.88277072E+00
   0.19850   0.88209462E+00
   0.19950   0.88119990E+00
   0.20050   0.88005614E+00
   0.20150   0.87861991E+00
   0.20250   0.87682283E+00
   0.20350   0.87455428E+00
   0.20450   0.87163138E+00
   0.20550   0.86774778E+00
   0.20650   0.86237597E+00
   0.20750   0.85457104E+00
   0.20850   0.84253460E+00
   0.20950   0.82255566E+00
   0.21050   0.78614318E+00
   0.21150   0.71155673E+00
   0.21250   0.54250008E+00
   0.21350   0.25192046E+00
   0.21450   0.28452915E+00
   0.21550   0.57224894E+00
   0.21650   0.71822590E+00
   0.21750   0.76925677E+00
   0.21850   0.77939820E+00
   0.21950   0.78262866E+00
   0.22050   0.78574872E+00
   0.22150   0.78892756E+00
   0.22250   0.79201651E+00
   0.22350   0.79494143E+00
   0.22450   0.79767627E+00
   0.22550   0.80021596E+00
   0.22650   0.80256224E+00
   0.22750   0.80471843E+00
   0.22850   0.80668664E+00
   0.22950   0.80846703E+00
   0.23050   0.81005746E+00
   0.23150   0.81145251E+00
   0.23250   0.81264365E+00
   0.23350   0.81363183E+00
   0.23450   0.81455386E+00
   0.23550   0.81586391E+00
   0.23650   0.81742805E+00
   0.23750   0.81899279E+00
   0.23850   0.82051283E+00
   0.23950   0.82198495E+00
   0.24050   0.82341021E+00
   0.24150   0.82478833E+00
   0.24250   0.82611734E+00
   0.24350   0.82739449E+00
   0.24450   0.82861704E+00
   0.24550   0.82978302E+00
   0.24650   0.83089173E+00
   0.24750   0.83194411E+00
   0.24850   0.83294278E+00
   0.24950   0.83389169E+00
   0.25050   0.83479613E+00
   0.25150   0.83566213E+00
   0.25250   0.83649594E+00
   0.25350   0.83730370E+00
   0.25450   0.83809096E+00
   0.25550   0.83886242E+00
   0.25650   0.83962137E+00
   0.25750   0.84037006E+00
   0.25850   0.84110916E+00
   0.25950   0.84183830E+00
   0.26050   0.84255612E+00
   0.26150   0.84326047E+00
   0.26250   0.84394878E+00
   0.26350   0.84461850E+00
   0.26450   0.84526724E+00
   0.26550   0.84589314E+00
   0.26650   0.84649503E+00
   0.26750   0.84707254E+00
   0.26850   0.84762609E+00
   0.26950   0.84815699E+00
   0.27050   0.84866697E+00
   0.27150   0.84915841E+00
   0.27250   0.84963381E+00
   0.27350   0.85009575E+00
   0.27450   0.85054636E+00
   0.27550   0.85098755E+00
   0.27650   0.85142046E+00
   0.27750   0.85184556E+00
   0.27850   0.85226262E+00
   0.27950   0.85267061E+00
   0.28050   0.85306805E+00
   0.28150   0.85345286E+00
   0.28250   0.85382289E+00
   0.28350   0.85417581E+00
   0.28450   0.85450953E+00
   0.28550   0.85482216E+00
   0.28650   0.85511261E+00
   0.28750   0.85538006E+00
   0.28850   0.85562456E+00
   0.28950   0.85584676E+00
   0.29050   0.85604775E+00
   0.29150   0.85622925E+00
   0.29250   0.85639322E+00
   0.29350   0.85654187E+00
   0.29450   0.85667795E+00
   0.29550   0.85680544E+00
   0.29650   0.85693181E+00
   0.29750   0.85707760E+00
   0.29850   0.85731041E+00
   0.29950   0.85771054E+00
   0.30050   0.85808146E+00
   0.30150   0.85833418E+00
   0.30250   0.85849226E+00
   0.30350   0.85857493E+00
   0.30450   0.85859269E+00
   0.30550   0.85855097E+00
   0.30650   0.85845226E+00
   0.30750   0.85829699E+00
   0.30850   0.85808426E+00
   0.30950   0.85781169E+00
   0.31050   0.85747570E+00
   0.31150   0.85707152E+00
   0.31250   0.85659295E+00
   0.31350   0.85603237E+00
   0.31450   0.85538030E+00
   0.31550   0.85462499E+00
   0.31650   0.85375237E+00
   0.31750   0.85274518E+00
   0.31850   0.85158229E+00
   0.31950   0.85023785E+00
   0.32050   0.84867972E+00
   0.32150   0.84686798E+00
   0.32250   0.84475231E+00
   0.32350   0.84226888E+00
   0.32450   0.83933526E+00
   0.32550   0.83584410E+00
   0.32650   0.83165312E+00
   0.32750   0.82657081E+00
   0.32850   0.82033467E+00
   0.32950   0.81257772E+00
   0.33050   0.80277503E+00
   0.33150   0.79015779E+00
   0.33250   0.77356827E+00
   0.33350   0.75121188E+00
   0.33450   0.72022080E+00
   0.33550   0.67588556E+00
   0.33650   0.61036634E+00
   0.33750   0.51107144E+00
   0.33850   0.36203498E+00
   0.33950   0.16684285E+00
   0.34050   0.20407634E-01
   0.34150   0.11607823E-02
   0.34250   0.62423706E-01
   0.34350   0.25483379E+00
   0.34450   0.44321615E+00
   0.34550   0.57364863E+00
   0.34650   0.65784633E+00
   0.34750   0.71273208E+00
   0.34850   0.74960196E+00
   0.34950   0.77518761E+00
   0.35050   0.79347724E+00
   0.35150   0.80688858E+00
   0.35250   0.81693220E+00
   0.35350   0.82458013E+00
   0.35450   0.83047438E+00
   0.35550   0.83504629E+00
   0.35650   0.83858699E+00
   0.35750   0.84128565E+00
   0.35850   0.84324503E+00
   0.35950   0.84446657E+00
   0.36050   0.84476542E+00
   0.36150   0.84342873E+00
   0.36250   0.83816004E+00
   0.36350   0.82839930E+00
   0.36450   0.81981200E+00
   0.36550   0.81338483E+00
   0.36650   0.80845976E+00
   0.36750   0.80456132E+00
   0.36850   0.80139315E+00
   0.36950   0.79876280E+00
   0.37050   0.79653907E+00
   0.37150   0.79462808E+00
   0.37250   0.79296046E+00
   0.37350   0.79148322E+00
   0.37450   0.79015476E+00
   0.37550   0.78894132E+00
   0.37650   0.78781497E+00
   0.37750   0.78675163E+00
   0.37850   0.78572941E+00
   0.37950   0.78472763E+00
   0.38050   0.78372592E+00
   0.38150   0.78271484E+00
   0.38250   0.78175849E+00
   0.38350   0.78088367E+00
   0.38450   0.78000927E+00
   0.38550   0.77910173E+00
   0.38650   0.77814710E+00
   0.38750   0.77713537E+00
   0.38850   0.77605677E+00
   0.38950   0.77490133E+00
   0.39050   0.77365804E+00
   0.39150   0.77231455E+00
   0.39250   0.77085721E+00
   0.39350   0.76927042E+00
   0.39450   0.76753616E+00
   0.39550   0.76563382E+00
   0.39650   0.76353931E+00
   0.39750   0.76122439E+00
   0.39850   0.75865555E+00
   0.39950   0.75579286E+00
   0.40050   0.75258791E+00
   0.40150   0.74898189E+00
   0.40250   0.74490219E+00
   0.40350   0.74025816E+00
   0.40450   0.73493516E+00
   0.40550   0.72878677E+00
   0.40650   0.72162271E+00
   0.40750   0.71319264E+00
   0.40850   0.70316207E+00
   0.40950   0.69107729E+00
   0.41050   0.67631310E+00
   0.41150   0.65799749E+00
   0.41250   0.63490504E+00
   0.41350   0.60533142E+00
   0.41450   0.56701487E+00
   0.41550   0.51712531E+00
   0.41650   0.45337906E+00
   0.41750   0.37858957E+00
   0.41850   0.31090569E+00
   0.41950   0.29165176E+00
   0.42050   0.35873857E+00
   0.42150   0.48835519E+00
   0.42250   0.61286306E+00
   0.42350   0.70000237E+00
   0.42450   0.75368756E+00
   0.42550   0.78546226E+00
   0.42650   0.80408537E+00
   0.42750   0.81491536E+00
   0.42850   0.82106566E+00
   0.42950   0.82434481E+00
   0.43050   0.82582176E+00
   0.43150   0.82614273E+00
   0.43250   0.82570761E+00
   0.43350   0.82476866E+00
   0.43450   0.82348818E+00
   0.43550   0.82197165E+00
   0.43650   0.82028842E+00
   0.43750   0.81848395E+00
   0.43850   0.81658787E+00
   0.43950   0.81461889E+00
   0.44050   0.81258810E+00
   0.44150   0.81050122E+00
   0.44250   0.80835962E+00
   0.44350   0.80616170E+00
   0.44450   0.80390292E+00
   0.44550   0.80157673E+00
   0.44650   0.79917395E+00
   0.44750   0.79668349E+00
   0.44850   0.79409176E+00
   0.44950   0.79138237E+00
   0.45050   0.78853619E+00
   0.45150   0.78553033E+00
   0.45250   0.78233784E+00
   0.45350   0.77892655E+00
   0.45450   0.77525818E+00
   0.45550   0.77128679E+00
   0.45650   0.76695681E+00
   0.45750   0.76220065E+00
   0.45850   0.75693548E+00
   0.45950   0.75105846E+00
   0.46050   0.74444109E+00
   0.46150   0.73692083E+00
   0.46250   0.72828948E+00
   0.46350   0.71827692E+00
   0.46450   0.70652771E+00
   0.46550   0.69256669E+00
   0.46650   0.67574817E+00
   0.46750   0.65517992E+00
   0.46850   0.62960875E+00
   0.46950   0.59725273E+00
   0.47050   0.55557376E+00
   0.47150   0.50105536E+00
   0.47250   0.42935091E+00
   0.47350   0.33723447E+00
   0.47450   0.23025268E+00
   0.47550   0.13801165E+00
   0.47650   0.10690416E+00
   0.47750   0.14621925E+00
   0.47850   0.27288613E+00
   0.47950   0.50841713E+00
   0.48050   0.72429776E+00
   0.48150   0.84144592E+00
   0.48250   0.88359129E+00
   0.48350   0.87702352E+00
   0.48450   0.82498920E+00
   0.48550   0.70815188E+00
   0.48650   0.51699072E+00
   0.48750   0.40262464E+00
   0.48850   0.50969905E+00
   0.48950   0.65174866E+00
   0.49050   0.73901612E+00
   0.49150   0.78389215E+00
   0.49250   0.80340886E+00
   0.49350   0.80664647E+00
   0.49450   0.79760933E+00
   0.49550   0.77788943E+00
   0.49650   0.74909121E+00
   0.49750   0.71612489E+00
   0.49850   0.69007295E+00
   0.49950   0.69151461E+00
   0.50050   0.72365826E+00
   0.50150   0.76792544E+00
   0.50250   0.80865341E+00
   0.50350   0.83553517E+00
   0.50450   0.82890451E+00
   0.50550   0.69548160E+00
   0.50650   0.32425910E+00
   0.50750   0.52565283E+00
   0.50850   0.71776778E+00
   0.50950   0.78734529E+00
   0.51050   0.82898009E+00
   0.51150   0.81027931E+00
   0.51250   0.66243351E+00
   0.51350   0.79723847E+00
   0.51450   0.87444359E+00
   0.51550   0.88957906E+00
   0.51650   0.85102332E+00
   0.51750   0.81211889E+00
   0.51850   0.80283177E+00
   0.51950   0.80759031E+00
   0.52050   0.81084490E+00
   0.52150   0.83320546E+00
   0.52250   0.86999565E+00
   0.52350   0.90716821E+00
   0.52450   0.94200611E+00
   0.52550   0.97635788E+00
   0.52650   0.10118519E+01
   0.52750   0.10483367E+01
   0.52850   0.10835108E+01
   0.52950   0.11153135E+01
   0.53050   0.11451350E+01
   0.53150   0.11760205E+01
   0.53250   0.12085257E+01
   0.53350   0.12410169E+01
   0.53450   0.12714097E+01
   0.53550   0.12993710E+01
   0.53650   0.13263867E+01
   0.53750   0.13537157E+01
   0.53850   0.13821824E+01
   0.53950   0.14125082E+01
   0.54050   0.14454938E+01
   0.54150   0.14817764E+01
   0.54250   0.15214071E+01
   0.54350   0.15637220E+01
   0.54450   0.16077143E+01
   0.54550   0.16526560E+01
   0.54650   0.16984518E+01
   0.54750   0.17454118E+01
   0.54850   0.17936037E+01
   0.54950   0.18422192E+01
   0.55050   0.18893156E+01
   0.55150   0.19320765E+01
   0.55250   0.19675360E+01
   0.55350   0.19935000E+01
   0.55450   0.20092504E+01
   0.55550   0.20156927E+01
   0.55650   0.20149088E+01
   0.55750   0.20093923E+01
   0.55850   0.20013418E+01
   0.55950   0.19922664E+01
   0.56050   0.19829571E+01
   0.56150   0.19737177E+01
   0.56250   0.19646791E+01
   0.56350   0.19560360E+01
   0.56450   0.19481226E+01
   0.56550   0.19413418E+01
   0.56650   0.19360262E+01
   0.56750   0.19323194E+01
   0.56850   0.19301265E+01
   0.56950   0.19291478E+01
   0.57050   0.19289670E+01
   0.57150   0.19291590E+01
   0.57250   0.19293754E+01
   0.57350   0.19293818E+01
   0.57450   0.19290408E+01
   0.57550   0.19282553E+01
   0.57650   0.19268975E+01
   0.57750   0.19247452E+01
   0.57850   0.19214418E+01
   0.57950   0.19164768E+01
   0.58050   0.19091780E+01
   0.58150   0.18986964E+01
   0.58250   0.18839670E+01
   0.58350   0.18636452E+01
   0.58450   0.18360525E+01
   0.58550   0.17992774E+01
   0.58650   0.17518470E+01
   0.58750   0.16949538E+01
   0.58850   0.16374604E+01
   0.58950   0.16007730E+01
   0.59050   0.16110748E+01
   0.59150   0.16828203E+01
   0.59250   0.18039415E+01
   0.59350   0.19306475E+01
   0.59450   0.20311756E+01
   0.59550   0.21018145E+01
   0.59650   0.21500258E+01
   0.59750   0.21835353E+01
   0.59850   0.22078149E+01
   0.59950   0.22263334E+01
   0.60050   0.22411973E+01
   0.60150   0.22536576E+01
   0.60250   0.22644420E+01
   0.60350   0.22739706E+01
   0.60450   0.22824962E+01
   0.60550   0.22901933E+01
   0.60650   0.22972138E+01
   0.60750   0.23037131E+01
   0.60850   0.23098571E+01
   0.60950   0.23158145E+01
   0.61050   0.23217375E+01
   0.61150   0.23277440E+01
   0.61250   0.23338971E+01
   0.61350   0.23401935E+01
   0.61450   0.23465559E+01
   0.61550   0.23528306E+01
   0.61650   0.23587897E+01
   0.61750   0.23641536E+01
   0.61850   0.23687217E+01
   0.61950   0.23721282E+01
   0.62050   0.23734007E+01
   0.62150   0.23699377E+01
   0.62250   0.23552222E+01
   0.62350   0.23332698E+01
   0.62450   0.23158467E+01
   0.62550   0.23029120E+01
   0.62650   0.22929544E+01
   0.62750   0.22850204E+01
   0.62850   0.22785251E+01
   0.62950   0.22730944E+01
   0.63050   0.22684813E+01
   0.63150   0.22645199E+01
   0.63250   0.22610979E+01
   0.63350   0.22581353E+01
   0.63450   0.22555735E+01
   0.63550   0.22533658E+01
   0.63650   0.22514720E+01
   0.63750   0.22498567E+01
   0.63850   0.22484889E+01
   0.63950   0.22473414E+01
   0.64050   0.22463927E+01
   0.64150   0.22456276E+01
   0.64250   0.22450356E+01
   0.64350   0.22446120E+01
   0.64450   0.22443545E+01
   0.64550   0.22442632E+01
   0.64650   0.22443373E+01
   0.64750   0.22445741E+01
   0.64850   0.22449682E+01
   0.64950   0.22455099E+01
   0.65050   0.22461867E+01
   0.65150   0.22469826E+01
   0.65250   0.22478800E+01
   0.65350   0.22488599E+01
   0.65450   0.22499044E+01
   0.65550   0.22509971E+01
   0.65650   0.22521234E+01
   0.65750   0.22532723E+01
   0.65850   0.22544355E+01
   0.65950   0.22556086E+01
   0.66050   0.22567887E+01
   0.66150   0.22579770E+01
   0.66250   0.22591743E+01
   0.66350   0.22603834E+01
   0.66450   0.22616041E+01
   0.66550   0.22628348E+01
   0.66650   0.22640681E+01
   0.66750   0.22652907E+01
   0.66850   0.22664809E+01
   0.66950   0.22676063E+01
   0.67050   0.22686238E+01
   0.67150   0.22694793E+01
   0.67250   0.22701070E+01
   0.67350   0.22704315E+01
   0.67450   0.22703688E+01
   0.67550   0.22698298E+01
   0.67650   0.22687209E+01
   0.67750   0.22669456E+01
   0.67850   0.22644017E+01
   0.67950   0.22609701E+01
   0.68050   0.22564878E+01
   0.68150   0.22506778E+01
   0.68250   0.22429423E+01
   0.68350   0.22315896E+01
   0.68450   0.22093949E+01
   0.68550   0.20987198E+01
   0.68650   0.19729362E+01
   0.68750   0.21888969E+01
   0.68850   0.21874959E+01
   0.68950   0.21698194E+01
   0.69050   0.21432498E+01
   0.69150   0.21066012E+01
   0.69250   0.20555301E+01
   0.69350   0.19823370E+01
   0.69450   0.18787510E+01
   0.69550   0.17660720E+01
   0.69650   0.17846529E+01
   0.69750   0.19815353E+01
   0.69850   0.20979533E+01
   0.69950   0.20868189E+01
   0.70050   0.19776088E+01
   0.70150   0.18179476E+01
   0.70250   0.16287382E+01
   0.70350   0.19032581E+01
   0.70450   0.17773039E+01
   0.70550   0.17049332E+01
   0.70650   0.18144821E+01
   0.70750   0.17208689E+01
   0.70850   0.18104439E+01
   0.70950   0.18954138E+01
   0.71050   0.19212377E+01
   0.71150   0.19123079E+01
   0.71250   0.18916543E+01
   0.71350   0.18711655E+01
   0.71450   0.18562567E+01
   0.71550   0.18494350E+01
   0.71650   0.18521924E+01
   0.71750   0.18650963E+01
   0.71850   0.18874351E+01
   0.71950   0.19175445E+01
   0.72050   0.19533404E+01
   0.72150   0.19925646E+01
   0.72250   0.20330179E+01
   0.72350   0.20728781E+01
   0.72450   0.21107848E+01
   0.72550   0.21456184E+01
   0.72650   0.21762729E+01
   0.72750   0.22016602E+01
   0.72850   0.22209013E+01
   0.72950   0.22334564E+01
   0.73050   0.22388523E+01
   0.73150   0.22353148E+01
   0.73250   0.22174442E+01
   0.73350   0.21903138E+01
   0.73450   0.21653724E+01
   0.73550   0.21427522E+01
   0.73650   0.21211989E+01
   0.73750   0.21000104E+01
   0.73850   0.20789304E+01
   0.73950   0.20579946E+01
   0.74050   0.20374084E+01
   0.74150   0.20174460E+01
   0.74250   0.19983865E+01
   0.74350   0.19804770E+01
   0.74450   0.19639249E+01
   0.74550   0.19489012E+01
   0.74650   0.19355493E+01
   0.74750   0.19239924E+01
   0.74850   0.19143370E+01
   0.74950   0.19066713E+01
   0.75050   0.19010592E+01
   0.75150   0.18975323E+01
   0.75250   0.18960824E+01
   0.75350   0.18966550E+01
   0.75450   0.18991518E+01
   0.75550   0.19034367E+01
   0.75650   0.19093485E+01
   0.75750   0.19167138E+01
   0.75850   0.19253595E+01
   0.75950   0.19351197E+01
   0.76050   0.19458396E+01
   0.76150   0.19573740E+01
   0.76250   0.19695845E+01
   0.76350   0.19823377E+01
   0.76450   0.19955046E+01
   0.76550   0.20089612E+01
   0.76650   0.20225918E+01
   0.76750   0.20362911E+01
   0.76850   0.20499659E+01
   0.76950   0.20635345E+01
   0.77050   0.20769238E+01
   0.77150   0.20900657E+01
   0.77250   0.21028929E+01
   0.77350   0.21153357E+01
   0.77450   0.21273222E+01
   0.77550   0.21387789E+01
   0.77650   0.21496356E+01
   0.77750   0.21598306E+01
   0.77850   0.21693170E+01
   0.77950   0.21780684E+01
   0.78050   0.21860869E+01
   0.78150   0.21934223E+01
   0.78250   0.22001951E+01
   0.78350   0.22064281E+01
   0.78450   0.22121530E+01
   0.78550   0.22174549E+01
   0.78650   0.22223961E+01
   0.78750   0.22270162E+01
   0.78850   0.22313364E+01
   0.78950   0.22353685E+01
   0.79050   0.22391193E+01
   0.79150   0.22425976E+01
   0.79250   0.22458169E+01
   0.79350   0.22487993E+01
   0.79450   0.22515728E+01
   0.79550   0.22541711E+01
   0.79650   0.22566288E+01
   0.79750   0.22589777E+01
   0.79850   0.22612429E+01
   0.79950   0.22634423E+01
   0.80050   0.22655852E+01
   0.80150   0.22676749E+01
   0.80250   0.22697134E+01
   0.80350   0.22717056E+01
   0.80450   0.22736652E+01
   0.80550   0.22756190E+01
   0.80650   0.22776096E+01
   0.80750   0.22796948E+01
   0.80850   0.22819462E+01
   0.80950   0.22844429E+01
   0.81050   0.22872646E+01
   0.81150   0.22904828E+01
   0.81250   0.22941523E+01
   0.81350   0.22983038E+01
   0.81450   0.23029373E+01
   0.81550   0.23080194E+01
   0.81650   0.23134835E+01
   0.81750   0.23192306E+01
   0.81850   0.23251305E+01
   0.81950   0.23310113E+01
   0.82050   0.23366032E+01
   0.82150   0.23412919E+01
   0.82250   0.23428178E+01
   0.82350   0.23268485E+01
   0.82450   0.21543179E+01
   0.82550   0.22069585E+01
   0.82650   0.22588773E+01
   0.82750   0.22525311E+01
   0.82850   0.22365718E+01
   0.82950   0.21977863E+01
   0.83050   0.19585162E+01
   0.83150   0.18128583E+01
   0.83250   0.20463183E+01
   0.83350   0.20977662E+01
   0.83450   0.21095889E+01
   0.83550   0.20855405E+01
   0.83650   0.19727767E+01
   0.83750   0.19660293E+01
   0.83850   0.22719884E+01
   0.83950   0.20132470E+01
   0.84050   0.21322172E+01
   0.84150   0.20951219E+01
   0.84250   0.22637293E+01
   0.84350   0.23050005E+01
   0.84450   0.22914815E+01
   0.84550   0.22931271E+01
   0.84650   0.23160686E+01
   0.84750   0.23375375E+01
   0.84850   0.23344257E+01
   0.84950   0.23082778E+01
   0.85050   0.22720799E+01
   0.85150   0.22383158E+01
   0.85250   0.22164044E+01
   0.85350   0.22111168E+01
   0.85450   0.22216794E+01
   0.85550   0.22425673E+01
   0.85650   0.22663286E+01
   0.85750   0.22868822E+01
   0.85850   0.23013146E+01
   0.85950   0.23100064E+01
   0.86050   0.23156347E+01
   0.86150   0.23215835E+01
   0.86250   0.23305590E+01
   0.86350   0.23439684E+01
   0.86450   0.23619821E+01
   0.86550   0.23838837E+01
   0.86650   0.24084537E+01
   0.86750   0.24343426E+01
   0.86850   0.24603953E+01
   0.86950   0.24858365E+01
   0.87050   0.25102236E+01
   0.87150   0.25331991E+01
   0.87250   0.25542073E+01
   0.87350   0.25723906E+01
   0.87450   0.25867939E+01
   0.87550   0.25968173E+01
   0.87650   0.26026554E+01
   0.87750   0.26054270E+01
   0.87850   0.26068990E+01
   0.87950   0.26089666E+01
   0.88050   0.26131303E+01
   0.88150   0.26201131E+01
   0.88250   0.26296678E+01
   0.88350   0.26406071E+01
   0.88450   0.26510830E+01
   0.88550   0.26590626E+01
   0.88650   0.26628394E+01
   0.88750   0.26613758E+01
   0.88850   0.26543653E+01
   0.88950   0.26420586E+01
   0.89050   0.26249897E+01
   0.89150   0.26037238E+01
   0.89250   0.25786829E+01
   0.89350   0.25500684E+01
   0.89450   0.25178914E+01
   0.89550   0.24821374E+01
   0.89650   0.24430354E+01
   0.89750   0.24013267E+01
   0.89850   0.23582551E+01
   0.89950   0.23147259E+01
   0.90050   0.22685528E+01
   0.90150   0.22196932E+01
   0.90250   0.21821959E+01
   0.90350   0.21568453E+01
   0.90450   0.21393712E+01
   0.90550   0.21263852E+01
   0.90650   0.21155758E+01
   0.90750   0.21062245E+01
   0.90850   0.20991848E+01
   0.90950   0.20961688E+01
   0.91050   0.20987575E+01
   0.91150   0.21076505E+01
   0.91250   0.21223762E+01
   0.91350   0.21413791E+01
   0.91450   0.21622987E+01
   0.91550   0.21823311E+01
   0.91650   0.21986506E+01
   0.91750   0.22089076E+01
   0.91850   0.22117441E+01
   0.91950   0.22071533E+01
   0.92050   0.21964586E+01
   0.92150   0.21817799E+01
   0.92250   0.21652832E+01
   0.92350   0.21534061E+01
   0.92450   0.24140615E+01
   0.92550   0.21440513E+01
   0.92650   0.20486374E+01
   0.92750   0.19963360E+01
   0.92850   0.20374503E+01
   0.92950   0.18363744E+01
   0.93050   0.18011159E+01
   0.93150   0.18211316E+01
   0.93250   0.18877155E+01
   0.93350   0.19579465E+01
   0.93450   0.19943064E+01
   0.93550   0.19432487E+01
   0.93650   0.18185853E+01
   0.93750   0.17002149E+01
   0.93850   0.16288457E+01
   0.93950   0.16153363E+01
   0.94050   0.16592128E+01
   0.94150   0.17696540E+01
   0.94250   0.18899016E+01
   0.94350   0.16892325E+01
   0.94450   0.15706409E+01
   0.94550   0.15734161E+01
   0.94650   0.16232430E+01
   0.94750   0.16498030E+01
   0.94850   0.16548878E+01
   0.94950   0.16563631E+01
   0.95050   0.16455771E+01
   0.95150   0.16151940E+01
   0.95250   0.15595453E+01
   0.95350   0.14802449E+01
   0.95450   0.14012707E+01
   0.95550   0.13305438E+01
   0.95650   0.12696292E+01
   0.95750   0.12271403E+01
   0.95850   0.11904374E+01
   0.95950   0.11412879E+01
   0.96050   0.10730426E+01
   0.96150   0.99350053E+00
   0.96250   0.91252130E+00
   0.96350   0.83656901E+00
   0.96450   0.76948667E+00
   0.96550   0.71202111E+00
   0.96650   0.66328150E+00
   0.96750   0.62306392E+00
   0.96850   0.59254640E+00
   0.96950   0.57342309E+00
   0.97050   0.56593961E+00
   0.97150   0.56514990E+00
   0.97250   0.55999953E+00
   0.97350   0.54311609E+00
   0.97450   0.51810312E+00
   0.97550   0.49269059E+00
   0.97650   0.47132522E+00
   0.97750   0.45405257E+00
   0.97850   0.43933031E+00
   0.97950   0.42262888E+00
   0.98050   0.39951655E+00
   0.98150   0.37723401E+00
   0.98250   0.37190557E+00
   0.98350   0.38890377E+00
   0.98450   0.40920159E+00
   0.98550   0.40169030E+00
   0.98650   0.36390948E+00
   0.98750   0.31889468E+00
   0.98850   0.28334877E+00
   0.98950   0.26837483E+00
   0.99050   0.28677177E+00
   0.99150   0.34755209E+00
   0.99250   0.44404653E+00
   0.99350   0.59192163E+00
   0.99450   0.72174567E+00
   0.99550   0.63970780E+00
   0.99650   0.50202012E+00
   0.99750   0.40010521E+00
   0.99850   0.37190878E+00
   0.99950   0.38615739E+00
