# Transmission, k-averaged
# Date: 2021-05-13
#   E [eV]           T [G0]
   0.00050   0.36967108E+00
   0.00150   0.91768205E-01
   0.00250   0.38428567E-01
   0.00350   0.71043731E-02
   0.00450   0.46073599E-02
   0.00550   0.78629116E-02
   0.00650   0.24061857E-02
   0.00750   0.25888551E-02
   0.00850   0.11180476E-01
   0.00950   0.14740052E-02
   0.01050   0.27923218E-02
   0.01150   0.23540124E-01
   0.01250   0.19471846E-02
   0.01350   0.14976679E-02
   0.01450   0.46019899E-02
   0.01550   0.19435216E-01
   0.01650   0.22832185E-02
   0.01750   0.13928767E-02
   0.01850   0.20900767E-02
   0.01950   0.10633471E-01
   0.02050   0.10702349E-01
   0.02150   0.21499849E-02
   0.02250   0.13352686E-02
   0.02350   0.16004163E-02
   0.02450   0.40313341E-02
   0.02550   0.31791255E-01
   0.02650   0.50162156E-02
   0.02750   0.17092829E-02
   0.02850   0.12163700E-02
   0.02950   0.14342436E-02
   0.03050   0.30225343E-02
   0.03150   0.19274404E-01
   0.03250   0.94545214E-02
   0.03350   0.22087856E-02
   0.03450   0.12327010E-02
   0.03550   0.11193537E-02
   0.03650   0.15738464E-02
   0.03750   0.40990701E-02
   0.03850   0.32930370E-01
   0.03950   0.60305968E-02
   0.04050   0.18293133E-02
   0.04150   0.11464268E-02
   0.04250   0.11376364E-02
   0.04350   0.17981163E-02
   0.04450   0.55197510E-02
   0.04550   0.11236048E-01
   0.04650   0.42502191E-02
   0.04750   0.23950732E-02
   0.04850   0.18999149E-02
   0.04950   0.18959109E-02
   0.05050   0.22377770E-02
   0.05150   0.29244646E-02
   0.05250   0.37498679E-02
   0.05350   0.40359176E-02
   0.05450   0.35767234E-02
   0.05550   0.29831382E-02
   0.05650   0.26026689E-02
   0.05750   0.24575929E-02
   0.05850   0.25008202E-02
   0.05950   0.26809794E-02
   0.06050   0.29263070E-02
   0.06150   0.31316588E-02
   0.06250   0.32026083E-02
   0.06350   0.31294085E-02
   0.06450   0.29833033E-02
   0.06550   0.28439045E-02
   0.06650   0.27561504E-02
   0.06750   0.27322546E-02
   0.06850   0.27646797E-02
   0.06950   0.28342607E-02
   0.07050   0.29149512E-02
   0.07150   0.29800902E-02
   0.07250   0.30112215E-02
   0.07350   0.30047779E-02
   0.07450   0.29713067E-02
   0.07550   0.29281531E-02
   0.07650   0.28914877E-02
   0.07750   0.28718172E-02
   0.07850   0.28730286E-02
   0.07950   0.28932574E-02
   0.08050   0.29263780E-02
   0.08150   0.29638200E-02
   0.08250   0.29967530E-02
   0.08350   0.30184179E-02
   0.08450   0.30259159E-02
   0.08550   0.30207126E-02
   0.08650   0.30076874E-02
   0.08750   0.29932950E-02
   0.08850   0.29836968E-02
   0.08950   0.29834495E-02
   0.09050   0.29948934E-02
   0.09150   0.30180006E-02
   0.09250   0.30482132E-02
   0.09350   0.30747829E-02
   0.09450   0.30933395E-02
   0.09550   0.31042658E-02
   0.09650   0.31094321E-02
   0.09750   0.31114351E-02
   0.09850   0.31129529E-02
   0.09950   0.31162156E-02
   0.10050   0.31226904E-02
   0.10150   0.31329754E-02
   0.10250   0.31468668E-02
   0.10350   0.31635421E-02
   0.10450   0.31818098E-02
   0.10550   0.32003825E-02
   0.10650   0.32181263E-02
   0.10750   0.32342526E-02
   0.10850   0.32484201E-02
   0.10950   0.32607382E-02
   0.11050   0.32716859E-02
   0.11150   0.32819710E-02
   0.11250   0.32923694E-02
   0.11350   0.33035770E-02
   0.11450   0.33160970E-02
   0.11550   0.33301793E-02
   0.11650   0.33458080E-02
   0.11750   0.33627343E-02
   0.11850   0.33805438E-02
   0.11950   0.33987425E-02
   0.12050   0.34168488E-02
   0.12150   0.34344739E-02
   0.12250   0.34513816E-02
   0.12350   0.34675156E-02
   0.12450   0.34829970E-02
   0.12550   0.34980900E-02
   0.12650   0.35131506E-02
   0.12750   0.35285628E-02
   0.12850   0.35446798E-02
   0.12950   0.35617740E-02
   0.13050   0.35800047E-02
   0.13150   0.35994074E-02
   0.13250   0.36199016E-02
   0.13350   0.36413157E-02
   0.13450   0.36634253E-02
   0.13550   0.36859966E-02
   0.13650   0.37088292E-02
   0.13750   0.37317926E-02
   0.13850   0.37548505E-02
   0.13950   0.37780697E-02
   0.14050   0.38016147E-02
   0.14150   0.38257265E-02
   0.14250   0.38506927E-02
   0.14350   0.38768139E-02
   0.14450   0.39043687E-02
   0.14550   0.39335848E-02
   0.14650   0.39646183E-02
   0.14750   0.39975457E-02
   0.14850   0.40323636E-02
   0.14950   0.40690051E-02
   0.15050   0.41073579E-02
   0.15150   0.41472930E-02
   0.15250   0.41886922E-02
   0.15350   0.42314730E-02
   0.15450   0.42756083E-02
   0.15550   0.43211374E-02
   0.15650   0.43681618E-02
   0.15750   0.44168360E-02
   0.15850   0.44673467E-02
   0.15950   0.45198840E-02
   0.16050   0.45746132E-02
   0.16150   0.46316446E-02
   0.16250   0.46910113E-02
   0.16350   0.47526527E-02
   0.16450   0.48164087E-02
   0.16550   0.48820297E-02
   0.16650   0.49491902E-02
   0.16750   0.50175213E-02
   0.16850   0.50866441E-02
   0.16950   0.51562088E-02
   0.17050   0.52259332E-02
   0.17150   0.52956352E-02
   0.17250   0.53652562E-02
   0.17350   0.54348717E-02
   0.17450   0.55046789E-02
   0.17550   0.55748569E-02
   0.17650   0.56452295E-02
   0.17750   0.57158740E-02
   0.17850   0.57869144E-02
   0.17950   0.58583403E-02
   0.18050   0.59301313E-02
   0.18150   0.60022846E-02
   0.18250   0.60748230E-02
   0.18350   0.61477968E-02
   0.18450   0.62212856E-02
   0.18550   0.62953969E-02
   0.18650   0.63702669E-02
   0.18750   0.64460551E-02
   0.18850   0.65229405E-02
   0.18950   0.66011152E-02
   0.19050   0.66807796E-02
   0.19150   0.67621330E-02
   0.19250   0.68453681E-02
   0.19350   0.69306628E-02
   0.19450   0.70181768E-02
   0.19550   0.71080448E-02
   0.19650   0.72003752E-02
   0.19750   0.72952495E-02
   0.19850   0.73927217E-02
   0.19950   0.74928254E-02
   0.20050   0.75955740E-02
   0.20150   0.77009718E-02
   0.20250   0.78090215E-02
   0.20350   0.79197325E-02
   0.20450   0.80331312E-02
   0.20550   0.81492765E-02
   0.20650   0.82682688E-02
   0.20750   0.83902664E-02
   0.20850   0.85155070E-02
   0.20950   0.86443359E-02
   0.21050   0.87772449E-02
   0.21150   0.89149475E-02
   0.21250   0.90584969E-02
   0.21350   0.92094988E-02
   0.21450   0.93704816E-02
   0.21550   0.95453653E-02
   0.21650   0.97378604E-02
   0.21750   0.99220332E-02
   0.21850   0.99863596E-02
   0.21950   0.99443439E-02
   0.22050   0.98568136E-02
   0.22150   0.97444225E-02
   0.22250   0.96150506E-02
   0.22350   0.94729038E-02
   0.22450   0.93208766E-02
   0.22550   0.91613187E-02
   0.22650   0.89963228E-02
   0.22750   0.88278512E-02
   0.22850   0.86577944E-02
   0.22950   0.84880004E-02
   0.23050   0.83202831E-02
   0.23150   0.81564374E-02
   0.23250   0.79982514E-02
   0.23350   0.78475643E-02
   0.23450   0.77063646E-02
   0.23550   0.75759809E-02
   0.23650   0.74568680E-02
   0.23750   0.73504993E-02
   0.23850   0.72585009E-02
   0.23950   0.71823783E-02
   0.24050   0.71235318E-02
   0.24150   0.70832656E-02
   0.24250   0.70627928E-02
   0.24350   0.70632319E-02
   0.24450   0.70856088E-02
   0.24550   0.71308534E-02
   0.24650   0.71998010E-02
   0.24750   0.72931903E-02
   0.24850   0.74116667E-02
   0.24950   0.75557837E-02
   0.25050   0.77260099E-02
   0.25150   0.79227379E-02
   0.25250   0.81463000E-02
   0.25350   0.83969841E-02
   0.25450   0.86750668E-02
   0.25550   0.89808442E-02
   0.25650   0.93146777E-02
   0.25750   0.96770441E-02
   0.25850   0.10068602E-01
   0.25950   0.10490257E-01
   0.26050   0.10943242E-01
   0.26150   0.11429203E-01
   0.26250   0.11950286E-01
   0.26350   0.12509240E-01
   0.26450   0.13109514E-01
   0.26550   0.13755369E-01
   0.26650   0.14451979E-01
   0.26750   0.15205558E-01
   0.26850   0.16023478E-01
   0.26950   0.16914388E-01
   0.27050   0.17888369E-01
   0.27150   0.18957060E-01
   0.27250   0.20133819E-01
   0.27350   0.21433882E-01
   0.27450   0.22874540E-01
   0.27550   0.24475304E-01
   0.27650   0.26258092E-01
   0.27750   0.28247403E-01
   0.27850   0.30470489E-01
   0.27950   0.32957498E-01
   0.28050   0.35741605E-01
   0.28150   0.38859095E-01
   0.28250   0.42349383E-01
   0.28350   0.46254970E-01
   0.28450   0.50621320E-01
   0.28550   0.55496614E-01
   0.28650   0.60931403E-01
   0.28750   0.66978119E-01
   0.28850   0.73690444E-01
   0.28950   0.81122547E-01
   0.29050   0.89328185E-01
   0.29150   0.98359607E-01
   0.29250   0.10826644E+00
   0.29350   0.11909439E+00
   0.29450   0.13088390E+00
   0.29550   0.14366877E+00
   0.29650   0.15747456E+00
   0.29750   0.17231689E+00
   0.29850   0.18819924E+00
   0.29950   0.20511885E+00
   0.30050   0.22307438E+00
   0.30150   0.24203975E+00
   0.30250   0.26197287E+00
   0.30350   0.28282040E+00
   0.30450   0.30451757E+00
   0.30550   0.32698861E+00
   0.30650   0.35014769E+00
   0.30750   0.37389985E+00
   0.30850   0.39814261E+00
   0.30950   0.42276743E+00
   0.31050   0.44766134E+00
   0.31150   0.47270873E+00
   0.31250   0.49779290E+00
   0.31350   0.52279782E+00
   0.31450   0.54760945E+00
   0.31550   0.57211727E+00
   0.31650   0.59621537E+00
   0.31750   0.61980343E+00
   0.31850   0.64278769E+00
   0.31950   0.66508126E+00
   0.32050   0.68660474E+00
   0.32150   0.70728636E+00
   0.32250   0.72706193E+00
   0.32350   0.74587458E+00
   0.32450   0.76367474E+00
   0.32550   0.78041923E+00
   0.32650   0.79607093E+00
   0.32750   0.81059766E+00
   0.32850   0.82397127E+00
   0.32950   0.83616644E+00
   0.33050   0.84715891E+00
   0.33150   0.85692358E+00
   0.33250   0.86543190E+00
   0.33350   0.87264824E+00
   0.33450   0.87852472E+00
   0.33550   0.88299459E+00
   0.33650   0.88596106E+00
   0.33750   0.88728154E+00
   0.33850   0.88674194E+00
   0.33950   0.88401550E+00
   0.34050   0.87859470E+00
   0.34150   0.86967379E+00
   0.34250   0.85594332E+00
   0.34350   0.83522058E+00
   0.34450   0.80378145E+00
   0.34550   0.75519425E+00
   0.34650   0.67862803E+00
   0.34750   0.55838621E+00
   0.34850   0.38475919E+00
   0.34950   0.19744726E+00
   0.35050   0.97371258E-01
   0.35150   0.11064887E+00
   0.35250   0.19505700E+00
   0.35350   0.29656583E+00
   0.35450   0.38045257E+00
   0.35550   0.44003573E+00
   0.35650   0.47932020E+00
   0.35750   0.50352925E+00
   0.35850   0.51674265E+00
   0.35950   0.52176362E+00
   0.36050   0.52040160E+00
   0.36150   0.51379538E+00
   0.36250   0.50375026E+00
   0.36350   0.49668434E+00
   0.36450   0.49452454E+00
   0.36550   0.49489155E+00
   0.36650   0.49701253E+00
   0.36750   0.50078529E+00
   0.36850   0.50630784E+00
   0.36950   0.51375133E+00
   0.37050   0.52332193E+00
   0.37150   0.53524923E+00
   0.37250   0.54978383E+00
   0.37350   0.56719762E+00
   0.37450   0.58778173E+00
   0.37550   0.61183685E+00
   0.37650   0.63964343E+00
   0.37750   0.67138779E+00
   0.37850   0.70698810E+00
   0.37950   0.74568045E+00
   0.38050   0.78498548E+00
   0.38150   0.81784725E+00
   0.38250   0.82355475E+00
   0.38350   0.73456693E+00
   0.38450   0.37565812E+00
   0.38550   0.19672994E+00
   0.38650   0.46647781E+00
   0.38750   0.56781846E+00
   0.38850   0.55061054E+00
   0.38950   0.44884527E+00
   0.39050   0.24587859E+00
   0.39150   0.11058450E+00
   0.39250   0.81391163E-01
   0.39350   0.89954890E-01
   0.39450   0.11159568E+00
   0.39550   0.13935944E+00
   0.39650   0.17082368E+00
   0.39750   0.20540148E+00
   0.39850   0.24412832E+00
   0.39950   0.29087400E+00
   0.40050   0.35793209E+00
   0.40150   0.50364286E+00
   0.40250   0.47979119E+00
   0.40350   0.31244156E+00
   0.40450   0.39658099E+00
   0.40550   0.46216014E+00
   0.40650   0.43000013E+00
   0.40750   0.47076601E+00
   0.40850   0.48190483E+00
   0.40950   0.33025384E+00
   0.41050   0.17386885E+00
   0.41150   0.13342561E+00
   0.41250   0.14310837E+00
   0.41350   0.17190717E+00
   0.41450   0.20347278E+00
   0.41550   0.23151971E+00
   0.41650   0.25386068E+00
   0.41750   0.27321032E+00
   0.41850   0.28877383E+00
   0.41950   0.29620847E+00
   0.42050   0.29576042E+00
   0.42150   0.29212442E+00
   0.42250   0.28841478E+00
   0.42350   0.28349030E+00
   0.42450   0.27537543E+00
   0.42550   0.26475260E+00
   0.42650   0.25458106E+00
   0.42750   0.24752024E+00
   0.42850   0.24427387E+00
   0.42950   0.24403083E+00
   0.43050   0.24586369E+00
   0.43150   0.24961634E+00
   0.43250   0.25583705E+00
   0.43350   0.26516706E+00
   0.43450   0.27780655E+00
   0.43550   0.29339370E+00
   0.43650   0.31121445E+00
   0.43750   0.33048141E+00
   0.43850   0.35051316E+00
   0.43950   0.37079567E+00
   0.44050   0.39097416E+00
   0.44150   0.41081825E+00
   0.44250   0.43017820E+00
   0.44350   0.44894278E+00
   0.44450   0.46701023E+00
   0.44550   0.48428321E+00
   0.44650   0.50069004E+00
   0.44750   0.51622140E+00
   0.44850   0.53096253E+00
   0.44950   0.54510242E+00
   0.45050   0.55891126E+00
   0.45150   0.57269388E+00
   0.45250   0.58673608E+00
   0.45350   0.60126156E+00
   0.45450   0.61640918E+00
   0.45550   0.63223100E+00
   0.45650   0.64870280E+00
   0.45750   0.66573673E+00
   0.45850   0.68318868E+00
   0.45950   0.70085812E+00
   0.46050   0.71848464E+00
   0.46150   0.73574799E+00
   0.46250   0.75227559E+00
   0.46350   0.76765847E+00
   0.46450   0.78147048E+00
   0.46550   0.79328245E+00
   0.46650   0.80266708E+00
   0.46750   0.80919528E+00
   0.46850   0.81243014E+00
   0.46950   0.81193006E+00
   0.47050   0.80726719E+00
   0.47150   0.79806215E+00
   0.47250   0.78402758E+00
   0.47350   0.76500607E+00
   0.47450   0.74099350E+00
   0.47550   0.71214229E+00
   0.47650   0.67875427E+00
   0.47750   0.64127755E+00
   0.47850   0.60032260E+00
   0.47950   0.55670130E+00
   0.48050   0.51147503E+00
   0.48150   0.46598381E+00
   0.48250   0.42182556E+00
   0.48350   0.38076615E+00
   0.48450   0.34458843E+00
   0.48550   0.31490764E+00
   0.48650   0.29298893E+00
   0.48750   0.27959931E+00
   0.48850   0.27492839E+00
   0.48950   0.27863100E+00
   0.49050   0.29005954E+00
   0.49150   0.30872521E+00
   0.49250   0.33494854E+00
   0.49350   0.37055779E+00
   0.49450   0.41936541E+00
   0.49550   0.48682624E+00
   0.49650   0.57754093E+00
   0.49750   0.68879682E+00
   0.49850   0.80122668E+00
   0.49950   0.87286675E+00
   0.50050   0.86953032E+00
   0.50150   0.80481130E+00
   0.50250   0.72072697E+00
   0.50350   0.64885992E+00
   0.50450   0.59930331E+00
   0.50550   0.56983417E+00
   0.50650   0.55488133E+00
   0.50750   0.54936969E+00
   0.50850   0.54958385E+00
   0.50950   0.55302113E+00
   0.51050   0.55806017E+00
   0.51150   0.56368017E+00
   0.51250   0.56926149E+00
   0.51350   0.57445055E+00
   0.51450   0.57906884E+00
   0.51550   0.58305043E+00
   0.51650   0.58639950E+00
   0.51750   0.58916277E+00
   0.51850   0.59141243E+00
   0.51950   0.59323579E+00
   0.52050   0.59473139E+00
   0.52150   0.59609228E+00
   0.52250   0.59765941E+00
   0.52350   0.59976727E+00
   0.52450   0.60293132E+00
   0.52550   0.60804945E+00
   0.52650   0.61676538E+00
   0.52750   0.63225979E+00
   0.52850   0.66145045E+00
   0.52950   0.72784197E+00
   0.53050   0.78566736E+00
   0.53150   0.69703192E+00
   0.53250   0.63209993E+00
   0.53350   0.60429740E+00
   0.53450   0.59267348E+00
   0.53550   0.58799917E+00
   0.53650   0.58672303E+00
   0.53750   0.58739376E+00
   0.53850   0.58936352E+00
   0.53950   0.59232080E+00
   0.54050   0.59610522E+00
   0.54150   0.60062784E+00
   0.54250   0.60583454E+00
   0.54350   0.61168790E+00
   0.54450   0.61815864E+00
   0.54550   0.62522030E+00
   0.54650   0.63284594E+00
   0.54750   0.64100391E+00
   0.54850   0.64964902E+00
   0.54950   0.65870190E+00
   0.55050   0.66798639E+00
   0.55150   0.67700148E+00
   0.55250   0.68367159E+00
   0.55350   0.67141080E+00
   0.55450   0.53991085E+00
   0.55550   0.70304948E+00
   0.55650   0.73260915E+00
   0.55750   0.75033319E+00
   0.55850   0.76614231E+00
   0.55950   0.78116614E+00
   0.56050   0.79365671E+00
   0.56150   0.81135136E+00
   0.56250   0.82666099E+00
   0.56350   0.82166696E+00
   0.56450   0.74917656E+00
   0.56550   0.75765997E+00
   0.56650   0.79512614E+00
   0.56750   0.77270210E+00
   0.56850   0.51589972E+00
   0.56950   0.61336511E+00
   0.57050   0.67147613E+00
   0.57150   0.75013757E+00
   0.57250   0.77066088E+00
   0.57350   0.77897263E+00
   0.57450   0.80035609E+00
   0.57550   0.82948411E+00
   0.57650   0.85640210E+00
   0.57750   0.89233702E+00
   0.57850   0.92035180E+00
   0.57950   0.93210232E+00
   0.58050   0.94026148E+00
   0.58150   0.94863695E+00
   0.58250   0.95725602E+00
   0.58350   0.96847481E+00
   0.58450   0.98381710E+00
   0.58550   0.10032724E+01
   0.58650   0.10262667E+01
   0.58750   0.10515890E+01
   0.58850   0.10778558E+01
   0.58950   0.11040583E+01
   0.59050   0.11293504E+01
   0.59150   0.11529706E+01
   0.59250   0.11745602E+01
   0.59350   0.11942258E+01
   0.59450   0.12121197E+01
   0.59550   0.12281947E+01
   0.59650   0.12424372E+01
   0.59750   0.12552075E+01
   0.59850   0.12672580E+01
   0.59950   0.12793151E+01
   0.60050   0.12916265E+01
   0.60150   0.13039627E+01
   0.60250   0.13159974E+01
   0.60350   0.13276402E+01
   0.60450   0.13390963E+01
   0.60550   0.13506771E+01
   0.60650   0.13625305E+01
   0.60750   0.13744978E+01
   0.60850   0.13861983E+01
   0.60950   0.13972398E+01
   0.61050   0.14073895E+01
   0.61150   0.14166325E+01
   0.61250   0.14251311E+01
   0.61350   0.14331278E+01
   0.61450   0.14408352E+01
   0.61550   0.14483618E+01
   0.61650   0.14557093E+01
   0.61750   0.14628333E+01
   0.61850   0.14696903E+01
   0.61950   0.14765470E+01
   0.62050   0.14842582E+01
   0.62150   0.14943910E+01
   0.62250   0.15094519E+01
   0.62350   0.15260465E+01
   0.62450   0.15397440E+01
   0.62550   0.15514635E+01
   0.62650   0.15620896E+01
   0.62750   0.15720669E+01
   0.62850   0.15816526E+01
   0.62950   0.15910367E+01
   0.63050   0.16003804E+01
   0.63150   0.16098169E+01
   0.63250   0.16194354E+01
   0.63350   0.16292676E+01
   0.63450   0.16392859E+01
   0.63550   0.16494154E+01
   0.63650   0.16595557E+01
   0.63750   0.16696049E+01
   0.63850   0.16794778E+01
   0.63950   0.16891153E+01
   0.64050   0.16984835E+01
   0.64150   0.17075675E+01
   0.64250   0.17163614E+01
   0.64350   0.17248596E+01
   0.64450   0.17330514E+01
   0.64550   0.17409194E+01
   0.64650   0.17484411E+01
   0.64750   0.17555939E+01
   0.64850   0.17623585E+01
   0.64950   0.17687236E+01
   0.65050   0.17746859E+01
   0.65150   0.17802513E+01
   0.65250   0.17854329E+01
   0.65350   0.17902490E+01
   0.65450   0.17947215E+01
   0.65550   0.17988737E+01
   0.65650   0.18027304E+01
   0.65750   0.18063166E+01
   0.65850   0.18096573E+01
   0.65950   0.18127775E+01
   0.66050   0.18157011E+01
   0.66150   0.18184513E+01
   0.66250   0.18210483E+01
   0.66350   0.18235089E+01
   0.66450   0.18258442E+01
   0.66550   0.18280567E+01
   0.66650   0.18301351E+01
   0.66750   0.18320416E+01
   0.66850   0.18336815E+01
   0.66950   0.18348037E+01
   0.67050   0.18345497E+01
   0.67150   0.18273466E+01
   0.67250   0.17889946E+01
   0.67350   0.16258326E+01
   0.67450   0.18523957E+01
   0.67550   0.18565203E+01
   0.67650   0.18577213E+01
   0.67750   0.18580338E+01
   0.67850   0.18555470E+01
   0.67950   0.18383502E+01
   0.68050   0.17893144E+01
   0.68150   0.17617614E+01
   0.68250   0.16870546E+01
   0.68350   0.16005919E+01
   0.68450   0.17623101E+01
   0.68550   0.17629634E+01
   0.68650   0.16357756E+01
   0.68750   0.17242177E+01
   0.68850   0.17494839E+01
   0.68950   0.17558174E+01
   0.69050   0.17286881E+01
   0.69150   0.17164017E+01
   0.69250   0.17228353E+01
   0.69350   0.17359233E+01
   0.69450   0.17450900E+01
   0.69550   0.17488773E+01
   0.69650   0.17511476E+01
   0.69750   0.17582219E+01
   0.69850   0.17701746E+01
   0.69950   0.17845144E+01
   0.70050   0.18003225E+01
   0.70150   0.18180424E+01
   0.70250   0.18384683E+01
   0.70350   0.18621527E+01
   0.70450   0.18884666E+01
   0.70550   0.19155953E+01
   0.70650   0.19419281E+01
   0.70750   0.19671761E+01
   0.70850   0.19914765E+01
   0.70950   0.20148678E+01
   0.71050   0.20371385E+01
   0.71150   0.20578890E+01
   0.71250   0.20766985E+01
   0.71350   0.20932572E+01
   0.71450   0.21074359E+01
   0.71550   0.21193173E+01
   0.71650   0.21291766E+01
   0.71750   0.21374223E+01
   0.71850   0.21445222E+01
   0.71950   0.21509402E+01
   0.72050   0.21570749E+01
   0.72150   0.21631992E+01
   0.72250   0.21694181E+01
   0.72350   0.21756861E+01
   0.72450   0.21818945E+01
   0.72550   0.21879890E+01
   0.72650   0.21940544E+01
   0.72750   0.22003293E+01
   0.72850   0.22071633E+01
   0.72950   0.22149727E+01
   0.73050   0.22243171E+01
   0.73150   0.22364209E+01
   0.73250   0.22539911E+01
   0.73350   0.22743053E+01
   0.73450   0.22920277E+01
   0.73550   0.23072078E+01
   0.73650   0.23204710E+01
   0.73750   0.23322341E+01
   0.73850   0.23427873E+01
   0.73950   0.23523407E+01
   0.74050   0.23610399E+01
   0.74150   0.23689766E+01
   0.74250   0.23762004E+01
   0.74350   0.23827362E+01
   0.74450   0.23886037E+01
   0.74550   0.23938327E+01
   0.74650   0.23984749E+01
   0.74750   0.24026065E+01
   0.74850   0.24063244E+01
   0.74950   0.24097388E+01
   0.75050   0.24129610E+01
   0.75150   0.24160936E+01
   0.75250   0.24192228E+01
   0.75350   0.24224145E+01
   0.75450   0.24257159E+01
   0.75550   0.24291596E+01
   0.75650   0.24327679E+01
   0.75750   0.24365573E+01
   0.75850   0.24405406E+01
   0.75950   0.24447248E+01
   0.76050   0.24491086E+01
   0.76150   0.24536779E+01
   0.76250   0.24583986E+01
   0.76350   0.24632044E+01
   0.76450   0.24679749E+01
   0.76550   0.24724743E+01
   0.76650   0.24761589E+01
   0.76750   0.24773808E+01
   0.76850   0.24685361E+01
   0.76950   0.24320943E+01
   0.77050   0.24411221E+01
   0.77150   0.25241914E+01
   0.77250   0.25287418E+01
   0.77350   0.25317197E+01
   0.77450   0.25343227E+01
   0.77550   0.25352902E+01
   0.77650   0.25328701E+01
   0.77750   0.25242901E+01
   0.77850   0.25063045E+01
   0.77950   0.24628918E+01
   0.78050   0.23324201E+01
   0.78150   0.23851361E+01
   0.78250   0.24273884E+01
   0.78350   0.24258173E+01
   0.78450   0.24222498E+01
   0.78550   0.24278531E+01
   0.78650   0.24606917E+01
   0.78750   0.24859672E+01
   0.78850   0.24919267E+01
   0.78950   0.24930866E+01
   0.79050   0.24886947E+01
   0.79150   0.24881606E+01
   0.79250   0.25112753E+01
   0.79350   0.25586922E+01
   0.79450   0.26054964E+01
   0.79550   0.26386681E+01
   0.79650   0.26600950E+01
   0.79750   0.26746640E+01
   0.79850   0.26859074E+01
   0.79950   0.26950083E+01
   0.80050   0.27026043E+01
   0.80150   0.27101264E+01
   0.80250   0.27198923E+01
   0.80350   0.27332947E+01
   0.80450   0.27472517E+01
   0.80550   0.27566738E+01
   0.80650   0.27600739E+01
   0.80750   0.27588394E+01
   0.80850   0.27551911E+01
   0.80950   0.27516570E+01
   0.81050   0.27506936E+01
   0.81150   0.27537472E+01
   0.81250   0.27601020E+01
   0.81350   0.27671447E+01
   0.81450   0.27724569E+01
   0.81550   0.27752340E+01
   0.81650   0.27759664E+01
   0.81750   0.27755969E+01
   0.81850   0.27749286E+01
   0.81950   0.27743495E+01
   0.82050   0.27738409E+01
   0.82150   0.27731743E+01
   0.82250   0.27721434E+01
   0.82350   0.27707803E+01
   0.82450   0.27696815E+01
   0.82550   0.27709448E+01
   0.82650   0.27771373E+01
   0.82750   0.27843926E+01
   0.82850   0.27908459E+01
   0.82950   0.27967350E+01
   0.83050   0.28022518E+01
   0.83150   0.28074815E+01
   0.83250   0.28124866E+01
   0.83350   0.28173368E+01
   0.83450   0.28220990E+01
   0.83550   0.28268173E+01
   0.83650   0.28315005E+01
   0.83750   0.28361311E+01
   0.83850   0.28406868E+01
   0.83950   0.28451662E+01
   0.84050   0.28496075E+01
   0.84150   0.28540952E+01
   0.84250   0.28587639E+01
   0.84350   0.28637807E+01
   0.84450   0.28689475E+01
   0.84550   0.28734782E+01
   0.84650   0.28748941E+01
   0.84750   0.28537197E+01
   0.84850   0.28496094E+01
   0.84950   0.28961105E+01
   0.85050   0.29042389E+01
   0.85150   0.29086170E+01
   0.85250   0.29117610E+01
   0.85350   0.29140184E+01
   0.85450   0.29152458E+01
   0.85550   0.29147825E+01
   0.85650   0.29108574E+01
   0.85750   0.28993356E+01
   0.85850   0.28768187E+01
   0.85950   0.28728161E+01
   0.86050   0.29035447E+01
   0.86150   0.29217875E+01
   0.86250   0.29167171E+01
   0.86350   0.28922253E+01
   0.86450   0.29097476E+01
   0.86550   0.29345610E+01
   0.86650   0.29482024E+01
   0.86750   0.29545937E+01
   0.86850   0.29529555E+01
   0.86950   0.29453366E+01
   0.87050   0.29576859E+01
   0.87150   0.29693775E+01
   0.87250   0.29755874E+01
   0.87350   0.29967148E+01
   0.87450   0.30067363E+01
   0.87550   0.29931860E+01
   0.87650   0.29773550E+01
   0.87750   0.29697111E+01
   0.87850   0.29677272E+01
   0.87950   0.29631746E+01
   0.88050   0.29564257E+01
   0.88150   0.29490542E+01
   0.88250   0.29407337E+01
   0.88350   0.29330335E+01
   0.88450   0.29282584E+01
   0.88550   0.29265521E+01
   0.88650   0.29238598E+01
   0.88750   0.29146924E+01
   0.88850   0.29008336E+01
   0.88950   0.28868642E+01
   0.89050   0.28745849E+01
   0.89150   0.28652513E+01
   0.89250   0.28596392E+01
   0.89350   0.28575644E+01
   0.89450   0.28575866E+01
   0.89550   0.28575168E+01
   0.89650   0.28557663E+01
   0.89750   0.28517985E+01
   0.89850   0.28459134E+01
   0.89950   0.28396490E+01
   0.90050   0.28364599E+01
   0.90150   0.28393660E+01
   0.90250   0.28452721E+01
   0.90350   0.28527043E+01
   0.90450   0.28616533E+01
   0.90550   0.28714941E+01
   0.90650   0.28807323E+01
   0.90750   0.28873794E+01
   0.90850   0.28897364E+01
   0.90950   0.28871188E+01
   0.91050   0.28798974E+01
   0.91150   0.28687768E+01
   0.91250   0.28534648E+01
   0.91350   0.28304603E+01
   0.91450   0.28142114E+01
   0.91550   0.28190846E+01
   0.91650   0.28118129E+01
   0.91750   0.28006635E+01
   0.91850   0.27888384E+01
   0.91950   0.27772830E+01
   0.92050   0.27664301E+01
   0.92150   0.27564571E+01
   0.92250   0.27471898E+01
   0.92350   0.27377982E+01
   0.92450   0.27264047E+01
   0.92550   0.27103021E+01
   0.92650   0.26890929E+01
   0.92750   0.26730475E+01
   0.92850   0.26639073E+01
   0.92950   0.26505055E+01
   0.93050   0.26348577E+01
   0.93150   0.26199379E+01
   0.93250   0.26063049E+01
   0.93350   0.25896924E+01
   0.93450   0.25699055E+01
   0.93550   0.25502720E+01
   0.93650   0.25282712E+01
   0.93750   0.25038843E+01
   0.93850   0.24781883E+01
   0.93950   0.24515662E+01
   0.94050   0.24243433E+01
   0.94150   0.23971462E+01
   0.94250   0.23707330E+01
   0.94350   0.23454659E+01
   0.94450   0.23208842E+01
   0.94550   0.22954381E+01
   0.94650   0.22677858E+01
   0.94750   0.22384603E+01
   0.94850   0.22104213E+01
   0.94950   0.21923289E+01
   0.95050   0.21816940E+01
   0.95150   0.21705661E+01
   0.95250   0.21583428E+01
   0.95350   0.21464148E+01
   0.95450   0.21371832E+01
   0.95550   0.21322935E+01
   0.95650   0.21298590E+01
   0.95750   0.21276774E+01
   0.95850   0.21252367E+01
   0.95950   0.21223409E+01
   0.96050   0.21188693E+01
   0.96150   0.21146338E+01
   0.96250   0.21090121E+01
   0.96350   0.21008143E+01
   0.96450   0.20887108E+01
   0.96550   0.20718629E+01
   0.96650   0.20501530E+01
   0.96750   0.20240524E+01
   0.96850   0.19958603E+01
   0.96950   0.19692473E+01
   0.97050   0.19365880E+01
   0.97150   0.18961598E+01
   0.97250   0.18490726E+01
   0.97350   0.17949845E+01
   0.97450   0.17340486E+01
   0.97550   0.16680912E+01
   0.97650   0.16005391E+01
   0.97750   0.15331089E+01
   0.97850   0.14668680E+01
   0.97950   0.14027196E+01
   0.98050   0.13411863E+01
   0.98150   0.12822368E+01
   0.98250   0.12251400E+01
   0.98350   0.11686274E+01
   0.98450   0.11114047E+01
   0.98550   0.10525998E+01
   0.98650   0.99186009E+00
   0.98750   0.92948043E+00
   0.98850   0.86689204E+00
   0.98950   0.80492479E+00
   0.99050   0.74426627E+00
   0.99150   0.68905592E+00
   0.99250   0.64199036E+00
   0.99350   0.60357606E+00
   0.99450   0.57271552E+00
   0.99550   0.54733288E+00
   0.99650   0.52697575E+00
   0.99750   0.51219529E+00
   0.99850   0.50177425E+00
   0.99950   0.49031216E+00
