# Transmission, k-averaged
# Date: 2021-05-13
#   E [eV]           T [G0]
   0.00050   0.36603406E-01
   0.00150   0.38484998E-01
   0.00250   0.64392753E-01
   0.00350   0.75947732E-01
   0.00450   0.47786843E-01
   0.00550   0.38808044E-01
   0.00650   0.56961253E-01
   0.00750   0.26942752E-01
   0.00850   0.13399513E-01
   0.00950   0.39756995E-01
   0.01050   0.77191535E-02
   0.01150   0.14823341E-01
   0.01250   0.10288305E-01
   0.01350   0.40932992E-02
   0.01450   0.42791612E-01
   0.01550   0.47972910E-02
   0.01650   0.28775935E-02
   0.01750   0.17151244E-01
   0.01850   0.75849099E-02
   0.01950   0.22712678E-02
   0.02050   0.33411577E-02
   0.02150   0.41944515E-01
   0.02250   0.60588960E-02
   0.02350   0.22767591E-02
   0.02450   0.27856217E-02
   0.02550   0.12886928E-01
   0.02650   0.20230221E-01
   0.02750   0.32671529E-02
   0.02850   0.21200250E-02
   0.02950   0.30512318E-02
   0.03050   0.13218674E-01
   0.03150   0.28582968E-01
   0.03250   0.40346975E-02
   0.03350   0.21722766E-02
   0.03450   0.22966100E-02
   0.03550   0.48074350E-02
   0.03650   0.37841428E-01
   0.03750   0.12033572E-01
   0.03850   0.30696490E-02
   0.03950   0.19210711E-02
   0.04050   0.20723017E-02
   0.04150   0.40136226E-02
   0.04250   0.22408202E-01
   0.04350   0.12911982E-01
   0.04450   0.28887622E-02
   0.04550   0.16184498E-02
   0.04650   0.14593549E-02
   0.04750   0.17900743E-02
   0.04850   0.27094674E-02
   0.04950   0.36295250E-02
   0.05050   0.26740646E-02
   0.05150   0.15467902E-02
   0.05250   0.10234802E-02
   0.05350   0.81960269E-03
   0.05450   0.78048196E-03
   0.05550   0.85728627E-03
   0.05650   0.10240766E-02
   0.05750   0.11722038E-02
   0.05850   0.11027113E-02
   0.05950   0.85993385E-03
   0.06050   0.64529444E-03
   0.06150   0.51699014E-03
   0.06250   0.45766612E-03
   0.06350   0.44800920E-03
   0.06450   0.47645564E-03
   0.06550   0.52895787E-03
   0.06650   0.57217170E-03
   0.06750   0.56015293E-03
   0.06850   0.48951444E-03
   0.06950   0.40506950E-03
   0.07050   0.34004543E-03
   0.07150   0.30150884E-03
   0.07250   0.28646312E-03
   0.07350   0.29099640E-03
   0.07450   0.31103252E-03
   0.07550   0.33874554E-03
   0.07650   0.35874764E-03
   0.07750   0.35431187E-03
   0.07850   0.32460788E-03
   0.07950   0.28568378E-03
   0.08050   0.25270530E-03
   0.08150   0.23202349E-03
   0.08250   0.22463950E-03
   0.08350   0.23004497E-03
   0.08450   0.24727988E-03
   0.08550   0.27356087E-03
   0.08650   0.30130881E-03
   0.08750   0.31765885E-03
   0.08850   0.31303026E-03
   0.08950   0.29146078E-03
   0.09050   0.26571224E-03
   0.09150   0.24490428E-03
   0.09250   0.22953471E-03
   0.09350   0.22195830E-03
   0.09450   0.22327309E-03
   0.09550   0.22922520E-03
   0.09650   0.23418549E-03
   0.09750   0.23288792E-03
   0.09850   0.22322315E-03
   0.09950   0.20750694E-03
   0.10050   0.19025122E-03
   0.10150   0.17517223E-03
   0.10250   0.16413195E-03
   0.10350   0.15757100E-03
   0.10450   0.15515534E-03
   0.10550   0.15611199E-03
   0.10650   0.15928096E-03
   0.10750   0.16309538E-03
   0.10850   0.16575576E-03
   0.10950   0.16575766E-03
   0.11050   0.16254881E-03
   0.11150   0.15676451E-03
   0.11250   0.14979616E-03
   0.11350   0.14309118E-03
   0.11450   0.13769360E-03
   0.11550   0.13413992E-03
   0.11650   0.13253970E-03
   0.11750   0.13267370E-03
   0.11850   0.13404922E-03
   0.11950   0.13593906E-03
   0.12050   0.13747184E-03
   0.12150   0.13782743E-03
   0.12250   0.13650152E-03
   0.12350   0.13349428E-03
   0.12450   0.12928338E-03
   0.12550   0.12459846E-03
   0.12650   0.12015364E-03
   0.12750   0.11647448E-03
   0.12850   0.11384343E-03
   0.12950   0.11231518E-03
   0.13050   0.11175072E-03
   0.13150   0.11184940E-03
   0.13250   0.11218801E-03
   0.13350   0.11228917E-03
   0.13450   0.11173092E-03
   0.13550   0.11027279E-03
   0.13650   0.10793850E-03
   0.13750   0.10500342E-03
   0.13850   0.10189301E-03
   0.13950   0.99053024E-04
   0.14050   0.96851843E-04
   0.14150   0.95536067E-04
   0.14250   0.95225172E-04
   0.14350   0.95921881E-04
   0.14450   0.97524295E-04
   0.14550   0.99840341E-04
   0.14650   0.10261557E-03
   0.14750   0.10558614E-03
   0.14850   0.10855434E-03
   0.14950   0.11146237E-03
   0.15050   0.11442885E-03
   0.15150   0.11772953E-03
   0.15250   0.12173551E-03
   0.15350   0.12683925E-03
   0.15450   0.13339143E-03
   0.15550   0.14165150E-03
   0.15650   0.15174424E-03
   0.15750   0.16361655E-03
   0.15850   0.17700328E-03
   0.15950   0.19142654E-03
   0.16050   0.20625671E-03
   0.16150   0.22084125E-03
   0.16250   0.23466469E-03
   0.16350   0.24746987E-03
   0.16450   0.25928352E-03
   0.16550   0.27034158E-03
   0.16650   0.28095776E-03
   0.16750   0.29138816E-03
   0.16850   0.30172427E-03
   0.16950   0.31182097E-03
   0.17050   0.32125029E-03
   0.17150   0.32926214E-03
   0.17250   0.33470694E-03
   0.17350   0.33575521E-03
   0.17450   0.32873414E-03
   0.17550   0.30508603E-03
   0.17650   0.26666885E-03
   0.17750   0.23362137E-03
   0.17850   0.20764765E-03
   0.17950   0.18636181E-03
   0.18050   0.16830239E-03
   0.18150   0.15262843E-03
   0.18250   0.13881573E-03
   0.18350   0.12650900E-03
   0.18450   0.11545249E-03
   0.18550   0.10545817E-03
   0.18650   0.96392978E-04
   0.18750   0.88175024E-04
   0.18850   0.80773367E-04
   0.18950   0.74207703E-04
   0.19050   0.68547037E-04
   0.19150   0.63909167E-04
   0.19250   0.60466100E-04
   0.19350   0.58463811E-04
   0.19450   0.58268386E-04
   0.19550   0.60455637E-04
   0.19650   0.65966044E-04
   0.19750   0.76327233E-04
   0.19850   0.93755632E-04
   0.19950   0.11984319E-03
   0.20050   0.14670799E-03
   0.20150   0.12886508E-03
   0.20250   0.26736127E-04
   0.20350   0.35582572E-04
   0.20450   0.14073118E-03
   0.20550   0.18462946E-03
   0.20650   0.18613775E-03
   0.20750   0.17617147E-03
   0.20850   0.16581119E-03
   0.20950   0.15783055E-03
   0.21050   0.15256192E-03
   0.21150   0.14976021E-03
   0.21250   0.14915054E-03
   0.21350   0.15062097E-03
   0.21450   0.15440425E-03
   0.21550   0.16154670E-03
   0.21650   0.17559764E-03
   0.21750   0.20736738E-03
   0.21850   0.25855313E-03
   0.21950   0.30754259E-03
   0.22050   0.35091426E-03
   0.22150   0.39047515E-03
   0.22250   0.42746865E-03
   0.22350   0.46258859E-03
   0.22450   0.49618166E-03
   0.22550   0.52834413E-03
   0.22650   0.55895332E-03
   0.22750   0.58765791E-03
   0.22850   0.61383034E-03
   0.22950   0.63647563E-03
   0.23050   0.65408583E-03
   0.23150   0.66443911E-03
   0.23250   0.66434225E-03
   0.23350   0.64893602E-03
   0.23450   0.60641492E-03
   0.23550   0.52301824E-03
   0.23650   0.44515525E-03
   0.23750   0.42541418E-03
   0.23850   0.48137674E-03
   0.23950   0.58533781E-03
   0.24050   0.69170236E-03
   0.24150   0.77404483E-03
   0.24250   0.82830945E-03
   0.24350   0.86001522E-03
   0.24450   0.87589392E-03
   0.24550   0.88125007E-03
   0.24650   0.87975018E-03
   0.24750   0.87381370E-03
   0.24850   0.86501706E-03
   0.24950   0.85438852E-03
   0.25050   0.84260391E-03
   0.25150   0.83011203E-03
   0.25250   0.81721460E-03
   0.25350   0.80411742E-03
   0.25450   0.79096295E-03
   0.25550   0.77785167E-03
   0.25650   0.76485600E-03
   0.25750   0.75202843E-03
   0.25850   0.73940755E-03
   0.25950   0.72702102E-03
   0.26050   0.71488816E-03
   0.26150   0.70302066E-03
   0.26250   0.69142407E-03
   0.26350   0.68009825E-03
   0.26450   0.66903833E-03
   0.26550   0.65823522E-03
   0.26650   0.64767664E-03
   0.26750   0.63734787E-03
   0.26850   0.62723254E-03
   0.26950   0.61731314E-03
   0.27050   0.60757168E-03
   0.27150   0.59798989E-03
   0.27250   0.58854918E-03
   0.27350   0.57923095E-03
   0.27450   0.57001552E-03
   0.27550   0.56088250E-03
   0.27650   0.55180967E-03
   0.27750   0.54277270E-03
   0.27850   0.53374463E-03
   0.27950   0.52469567E-03
   0.28050   0.51559275E-03
   0.28150   0.50639984E-03
   0.28250   0.49707835E-03
   0.28350   0.48758756E-03
   0.28450   0.47788597E-03
   0.28550   0.46793296E-03
   0.28650   0.45769094E-03
   0.28750   0.44712890E-03
   0.28850   0.43622692E-03
   0.28950   0.42498281E-03
   0.29050   0.41342078E-03
   0.29150   0.40160306E-03
   0.29250   0.38964360E-03
   0.29350   0.37772063E-03
   0.29450   0.36607671E-03
   0.29550   0.35496996E-03
   0.29650   0.34444904E-03
   0.29750   0.33344224E-03
   0.29850   0.31629033E-03
   0.29950   0.28545072E-03
   0.30050   0.25897537E-03
   0.30150   0.24439403E-03
   0.30250   0.23817300E-03
   0.30350   0.23659767E-03
   0.30450   0.23615613E-03
   0.30550   0.23358015E-03
   0.30650   0.22637311E-03
   0.30750   0.21346215E-03
   0.30850   0.19547646E-03
   0.30950   0.17438232E-03
   0.31050   0.15265525E-03
   0.31150   0.13245193E-03
   0.31250   0.11514306E-03
   0.31350   0.10126337E-03
   0.31450   0.90718881E-04
   0.31550   0.83060630E-04
   0.31650   0.77709235E-04
   0.31750   0.74095638E-04
   0.31850   0.71729286E-04
   0.31950   0.70218593E-04
   0.32050   0.69265974E-04
   0.32150   0.68652073E-04
   0.32250   0.68217450E-04
   0.32350   0.67845474E-04
   0.32450   0.67447436E-04
   0.32550   0.66949840E-04
   0.32650   0.66283254E-04
   0.32750   0.65372566E-04
   0.32850   0.64132109E-04
   0.32950   0.62484847E-04
   0.33050   0.60495760E-04
   0.33150   0.58997248E-04
   0.33250   0.61606559E-04
   0.33350   0.73803749E-04
   0.33450   0.85994950E-04
   0.33550   0.89149966E-04
   0.33650   0.88618603E-04
   0.33750   0.87469321E-04
   0.33850   0.86440537E-04
   0.33950   0.85657892E-04
   0.34050   0.85109627E-04
   0.34150   0.84760082E-04
   0.34250   0.84575884E-04
   0.34350   0.84530453E-04
   0.34450   0.84603482E-04
   0.34550   0.84779436E-04
   0.34650   0.85046217E-04
   0.34750   0.85394036E-04
   0.34850   0.85814616E-04
   0.34950   0.86300512E-04
   0.35050   0.86844586E-04
   0.35150   0.87439490E-04
   0.35250   0.88077206E-04
   0.35350   0.88748406E-04
   0.35450   0.89441754E-04
   0.35550   0.90142865E-04
   0.35650   0.90832647E-04
   0.35750   0.91484617E-04
   0.35850   0.92059643E-04
   0.35950   0.92494811E-04
   0.36050   0.92674796E-04
   0.36150   0.92342969E-04
   0.36250   0.90870999E-04
   0.36350   0.88047222E-04
   0.36450   0.85087369E-04
   0.36550   0.82311351E-04
   0.36650   0.79676633E-04
   0.36750   0.77145516E-04
   0.36850   0.74698764E-04
   0.36950   0.72329123E-04
   0.37050   0.70037604E-04
   0.37150   0.67832072E-04
   0.37250   0.65727254E-04
   0.37350   0.63745654E-04
   0.37450   0.61919593E-04
   0.37550   0.60294413E-04
   0.37650   0.58933703E-04
   0.37750   0.57927573E-04
   0.37850   0.57405905E-04
   0.37950   0.57556517E-04
   0.38050   0.58615631E-04
   0.38150   0.60429371E-04
   0.38250   0.60207753E-04
   0.38350   0.57058354E-04
   0.38450   0.53943018E-04
   0.38550   0.51758070E-04
   0.38650   0.50615479E-04
   0.38750   0.50471059E-04
   0.38850   0.51239243E-04
   0.38950   0.52815420E-04
   0.39050   0.55080127E-04
   0.39150   0.57900190E-04
   0.39250   0.61130631E-04
   0.39350   0.64618420E-04
   0.39450   0.68208057E-04
   0.39550   0.71748625E-04
   0.39650   0.75101270E-04
   0.39750   0.78146106E-04
   0.39850   0.80787569E-04
   0.39950   0.82957282E-04
   0.40050   0.84614330E-04
   0.40150   0.85742948E-04
   0.40250   0.86348387E-04
   0.40350   0.86451604E-04
   0.40450   0.86083630E-04
   0.40550   0.85280117E-04
   0.40650   0.84076193E-04
   0.40750   0.82501392E-04
   0.40850   0.80573518E-04
   0.40950   0.78289035E-04
   0.41050   0.75603522E-04
   0.41150   0.72383024E-04
   0.41250   0.68257854E-04
   0.41350   0.62136409E-04
   0.41450   0.52198902E-04
   0.41550   0.42133139E-04
   0.41650   0.34919856E-04
   0.41750   0.29670329E-04
   0.41850   0.25645644E-04
   0.41950   0.22439328E-04
   0.42050   0.19814752E-04
   0.42150   0.17623355E-04
   0.42250   0.15765927E-04
   0.42350   0.14172926E-04
   0.42450   0.12793705E-04
   0.42550   0.11590232E-04
   0.42650   0.10533229E-04
   0.42750   0.95996866E-05
   0.42850   0.87712069E-05
   0.42950   0.80328673E-05
   0.43050   0.73724104E-05
   0.43150   0.67796641E-05
   0.43250   0.62461072E-05
   0.43350   0.57645457E-05
   0.43450   0.53288641E-05
   0.43550   0.49338323E-05
   0.43650   0.45749548E-05
   0.43750   0.42483507E-05
   0.43850   0.39506554E-05
   0.43950   0.36789449E-05
   0.44050   0.34306711E-05
   0.44150   0.32036096E-05
   0.44250   0.29958180E-05
   0.44350   0.28055999E-05
   0.44450   0.26314769E-05
   0.44550   0.24721642E-05
   0.44650   0.23265525E-05
   0.44750   0.21936926E-05
   0.44850   0.20727839E-05
   0.44950   0.19631671E-05
   0.45050   0.18643191E-05
   0.45150   0.17758526E-05
   0.45250   0.16975179E-05
   0.45350   0.16292098E-05
   0.45450   0.15709788E-05
   0.45550   0.15230471E-05
   0.45650   0.14858319E-05
   0.45750   0.14599757E-05
   0.45850   0.14463857E-05
   0.45950   0.14462852E-05
   0.46050   0.14612767E-05
   0.46150   0.14934212E-05
   0.46250   0.15453310E-05
   0.46350   0.16202755E-05
   0.46450   0.17222919E-05
   0.46550   0.18562763E-05
   0.46650   0.20280122E-05
   0.46750   0.22440472E-05
   0.46850   0.25112565E-05
   0.46950   0.28358268E-05
   0.47050   0.32212731E-05
   0.47150   0.36650656E-05
   0.47250   0.41537787E-05
   0.47350   0.46579335E-05
   0.47450   0.51303027E-05
   0.47550   0.55140799E-05
   0.47650   0.57644870E-05
   0.47750   0.58733781E-05
   0.47850   0.58722494E-05
   0.47950   0.58042478E-05
   0.48050   0.56934841E-05
   0.48150   0.55420246E-05
   0.48250   0.53468293E-05
   0.48350   0.51122784E-05
   0.48450   0.48505690E-05
   0.48550   0.45765191E-05
   0.48650   0.43031609E-05
   0.48750   0.40398841E-05
   0.48850   0.37924028E-05
   0.48950   0.35635085E-05
   0.49050   0.33539413E-05
   0.49150   0.31631098E-05
   0.49250   0.29895807E-05
   0.49350   0.28313466E-05
   0.49450   0.26858581E-05
   0.49550   0.25497218E-05
   0.49650   0.24176763E-05
   0.49750   0.22800534E-05
   0.49850   0.21298822E-05
   0.49950   0.20063599E-05
   0.50050   0.19223717E-05
   0.50150   0.18626885E-05
   0.50250   0.18189903E-05
   0.50350   0.17872284E-05
   0.50450   0.17652382E-05
   0.50550   0.17518162E-05
   0.50650   0.17463343E-05
   0.50750   0.17485711E-05
   0.50850   0.17586419E-05
   0.50950   0.17769902E-05
   0.51050   0.18044251E-05
   0.51150   0.18422134E-05
   0.51250   0.18922450E-05
   0.51350   0.19573217E-05
   0.51450   0.20416680E-05
   0.51550   0.21518845E-05
   0.51650   0.22988540E-05
   0.51750   0.25019563E-05
   0.51850   0.27996291E-05
   0.51950   0.32795524E-05
   0.52050   0.41446010E-05
   0.52150   0.53987051E-05
   0.52250   0.64849137E-05
   0.52350   0.73730980E-05
   0.52450   0.81701319E-05
   0.52550   0.89386331E-05
   0.52650   0.97192169E-05
   0.52750   0.10544522E-04
   0.52850   0.11445576E-04
   0.52950   0.12454115E-04
   0.53050   0.13598273E-04
   0.53150   0.14868952E-04
   0.53250   0.16015611E-04
   0.53350   0.15989242E-04
   0.53450   0.14955744E-04
   0.53550   0.14118114E-04
   0.53650   0.13612778E-04
   0.53750   0.13371116E-04
   0.53850   0.13327409E-04
   0.53950   0.13423637E-04
   0.54050   0.13599027E-04
   0.54150   0.13782636E-04
   0.54250   0.13893021E-04
   0.54350   0.13848066E-04
   0.54450   0.13584386E-04
   0.54550   0.13078179E-04
   0.54650   0.12354568E-04
   0.54750   0.11478000E-04
   0.54850   0.10529263E-04
   0.54950   0.95824398E-05
   0.55050   0.86915452E-05
   0.55150   0.78880294E-05
   0.55250   0.71849186E-05
   0.55350   0.65829754E-05
   0.55450   0.60761467E-05
   0.55550   0.56554059E-05
   0.55650   0.53111044E-05
   0.55750   0.50342396E-05
   0.55850   0.48170618E-05
   0.55950   0.46533341E-05
   0.56050   0.45384832E-05
   0.56150   0.44698777E-05
   0.56250   0.44476292E-05
   0.56350   0.44769772E-05
   0.56450   0.45758038E-05
   0.56550   0.48017300E-05
   0.56650   0.53733820E-05
   0.56750   0.74321129E-05
   0.56850   0.21466234E-04
   0.56950   0.17135587E-03
   0.57050   0.12072708E-03
   0.57150   0.33614811E-04
   0.57250   0.12640895E-04
   0.57350   0.95511432E-05
   0.57450   0.90887897E-05
   0.57550   0.92359514E-05
   0.57650   0.95534888E-05
   0.57750   0.98588107E-05
   0.57850   0.10003039E-04
   0.57950   0.98331866E-05
   0.58050   0.93295621E-05
   0.58150   0.99623012E-05
   0.58250   0.36967290E-03
   0.58350   0.10519983E-03
   0.58450   0.78340163E-04
   0.58550   0.47143298E-04
   0.58650   0.39834649E-04
   0.58750   0.48945138E-04
   0.58850   0.77623103E-04
   0.58950   0.13410753E-03
   0.59050   0.15529279E-02
   0.59150   0.46926951E-02
   0.59250   0.35475564E-03
   0.59350   0.10619185E-03
   0.59450   0.10723268E-03
   0.59550   0.25339148E-03
   0.59650   0.14815092E-02
   0.59750   0.54924614E-02
   0.59850   0.36630039E-02
   0.59950   0.11237876E-01
   0.60050   0.24307563E-03
   0.60150   0.13412755E-03
   0.60250   0.25479653E-03
   0.60350   0.13972218E-02
   0.60450   0.11864884E-02
   0.60550   0.47514562E-01
   0.60650   0.11854767E-01
   0.60750   0.17840476E-02
   0.60850   0.14516625E-02
   0.60950   0.14670015E-02
   0.61050   0.71921432E-03
   0.61150   0.53069356E-03
   0.61250   0.47677138E-03
   0.61350   0.58312068E-03
   0.61450   0.79077948E-03
   0.61550   0.10483285E-02
   0.61650   0.11597172E-02
   0.61750   0.11572511E-02
   0.61850   0.91517932E-03
   0.61950   0.58597070E-03
   0.62050   0.48268581E-03
   0.62150   0.53944497E-03
   0.62250   0.40369123E-03
   0.62350   0.35131889E-03
   0.62450   0.36228797E-03
   0.62550   0.40855623E-03
   0.62650   0.47710797E-03
   0.62750   0.55330526E-03
   0.62850   0.62175718E-03
   0.62950   0.68112736E-03
   0.63050   0.74321410E-03
   0.63150   0.82063582E-03
   0.63250   0.92726463E-03
   0.63350   0.10837982E-02
   0.63450   0.11951685E-02
   0.63550   0.11692756E-02
   0.63650   0.11257253E-02
   0.63750   0.11061477E-02
   0.63850   0.10968687E-02
   0.63950   0.10844755E-02
   0.64050   0.10680309E-02
   0.64150   0.10520166E-02
   0.64250   0.10376507E-02
   0.64350   0.10205354E-02
   0.64450   0.99445728E-03
   0.64550   0.95674768E-03
   0.64650   0.90996956E-03
   0.64750   0.85908530E-03
   0.64850   0.80781104E-03
   0.64950   0.75722905E-03
   0.65050   0.70666324E-03
   0.65150   0.65528310E-03
   0.65250   0.60308317E-03
   0.65350   0.55082602E-03
   0.65450   0.49942412E-03
   0.65550   0.44945106E-03
   0.65650   0.40108286E-03
   0.65750   0.35434272E-03
   0.65850   0.30937267E-03
   0.65950   0.26654397E-03
   0.66050   0.22638730E-03
   0.66150   0.18944401E-03
   0.66250   0.15614924E-03
   0.66350   0.12679324E-03
   0.66450   0.10154002E-03
   0.66550   0.80461330E-04
   0.66650   0.63557854E-04
   0.66750   0.50764280E-04
   0.66850   0.41948679E-04
   0.66950   0.36917147E-04
   0.67050   0.35427172E-04
   0.67150   0.37206417E-04
   0.67250   0.41971387E-04
   0.67350   0.49442246E-04
   0.67450   0.59352944E-04
   0.67550   0.71457573E-04
   0.67650   0.85534288E-04
   0.67750   0.10138745E-03
   0.67850   0.11884804E-03
   0.67950   0.13777179E-03
   0.68050   0.15803476E-03
   0.68150   0.17952602E-03
   0.68250   0.20213613E-03
   0.68350   0.22573548E-03
   0.68450   0.25010985E-03
   0.68550   0.27467156E-03
   0.68650   0.29676966E-03
   0.68750   0.30605239E-03
   0.68850   0.30077406E-03
   0.68950   0.29246282E-03
   0.69050   0.28386168E-03
   0.69150   0.27507523E-03
   0.69250   0.26595526E-03
   0.69350   0.25638926E-03
   0.69450   0.24632495E-03
   0.69550   0.23576130E-03
   0.69650   0.22473655E-03
   0.69750   0.21331721E-03
   0.69850   0.20158759E-03
   0.69950   0.18963958E-03
   0.70050   0.17756080E-03
   0.70150   0.16541719E-03
   0.70250   0.15321639E-03
   0.70350   0.14080240E-03
   0.70450   0.12748477E-03
   0.70550   0.11174725E-03
   0.70650   0.96595817E-04
   0.70750   0.85765168E-04
   0.70850   0.78801706E-04
   0.70950   0.74947813E-04
   0.71050   0.73659859E-04
   0.71150   0.74523967E-04
   0.71250   0.77198085E-04
   0.71350   0.81383841E-04
   0.71450   0.86813234E-04
   0.71550   0.93242437E-04
   0.71650   0.10044900E-03
   0.71750   0.10823081E-03
   0.71850   0.11640585E-03
   0.71950   0.12481234E-03
   0.72050   0.13330903E-03
   0.72150   0.14177534E-03
   0.72250   0.15011161E-03
   0.72350   0.15823920E-03
   0.72450   0.16610077E-03
   0.72550   0.17366090E-03
   0.72650   0.18090768E-03
   0.72750   0.18785649E-03
   0.72850   0.19455879E-03
   0.72950   0.20112291E-03
   0.73050   0.20776792E-03
   0.73150   0.21494921E-03
   0.73250   0.22302632E-03
   0.73350   0.22994178E-03
   0.73450   0.23484237E-03
   0.73550   0.23851945E-03
   0.73650   0.24144149E-03
   0.73750   0.24386254E-03
   0.73850   0.24594538E-03
   0.73950   0.24780838E-03
   0.74050   0.24954503E-03
   0.74150   0.25123305E-03
   0.74250   0.25293906E-03
   0.74350   0.25472126E-03
   0.74450   0.25663112E-03
   0.74550   0.25871446E-03
   0.74650   0.26101246E-03
   0.74750   0.26356211E-03
   0.74850   0.26639696E-03
   0.74950   0.26954772E-03
   0.75050   0.27304256E-03
   0.75150   0.27690781E-03
   0.75250   0.28116844E-03
   0.75350   0.28584848E-03
   0.75450   0.29097154E-03
   0.75550   0.29656143E-03
   0.75650   0.30264258E-03
   0.75750   0.30924060E-03
   0.75850   0.31638285E-03
   0.75950   0.32409895E-03
   0.76050   0.33242151E-03
   0.76150   0.34138665E-03
   0.76250   0.35103469E-03
   0.76350   0.36141099E-03
   0.76450   0.37256669E-03
   0.76550   0.38455965E-03
   0.76650   0.39745553E-03
   0.76750   0.41132886E-03
   0.76850   0.42626454E-03
   0.76950   0.44235931E-03
   0.77050   0.45972352E-03
   0.77150   0.47848318E-03
   0.77250   0.49878232E-03
   0.77350   0.52078575E-03
   0.77450   0.54468174E-03
   0.77550   0.57068601E-03
   0.77650   0.59904554E-03
   0.77750   0.63004368E-03
   0.77850   0.66400773E-03
   0.77950   0.70132368E-03
   0.78050   0.74247899E-03
   0.78150   0.78824506E-03
   0.78250   0.84009877E-03
   0.78350   0.89880958E-03
   0.78450   0.96410763E-03
   0.78550   0.10359581E-02
   0.78650   0.11142467E-02
   0.78750   0.11986000E-02
   0.78850   0.12883203E-02
   0.78950   0.13823916E-02
   0.79050   0.14795775E-02
   0.79150   0.15786348E-02
   0.79250   0.16786414E-02
   0.79350   0.17794005E-02
   0.79450   0.18818601E-02
   0.79550   0.19885225E-02
   0.79650   0.21039946E-02
   0.79750   0.22364408E-02
   0.79850   0.24037743E-02
   0.79950   0.26770334E-02
   0.80050   0.45574713E-02
   0.80150   0.57723066E-02
   0.80250   0.36779882E-02
   0.80350   0.40581948E-02
   0.80450   0.49337759E-02
   0.80550   0.67501520E-02
   0.80650   0.11379571E-01
   0.80750   0.25512712E-01
   0.80850   0.42893231E-01
   0.80950   0.29689904E-01
   0.81050   0.17736403E-01
   0.81150   0.15490809E-01
   0.81250   0.19201795E-01
   0.81350   0.30468648E-01
   0.81450   0.44368207E-01
   0.81550   0.51580887E-01
   0.81650   0.40807717E-01
   0.81750   0.62669732E-01
   0.81850   0.78978926E-01
   0.81950   0.23331356E+00
   0.82050   0.17751545E+00
   0.82150   0.16257943E+00
   0.82250   0.19632730E+00
   0.82350   0.23161472E+00
   0.82450   0.58000964E+00
   0.82550   0.25440183E+00
   0.82650   0.19932887E+00
   0.82750   0.16843274E+00
   0.82850   0.12160658E+00
   0.82950   0.97991399E-01
   0.83050   0.78309990E-01
   0.83150   0.66721357E-01
   0.83250   0.55306412E-01
   0.83350   0.46448618E-01
   0.83450   0.41608710E-01
   0.83550   0.39147217E-01
   0.83650   0.38667813E-01
   0.83750   0.38979545E-01
   0.83850   0.37567798E-01
   0.83950   0.33841047E-01
   0.84050   0.30087657E-01
   0.84150   0.27702162E-01
   0.84250   0.27000984E-01
   0.84350   0.27975548E-01
   0.84450   0.30278370E-01
   0.84550   0.32977957E-01
   0.84650   0.33619076E-01
   0.84750   0.31515468E-01
   0.84850   0.28616769E-01
   0.84950   0.26160810E-01
   0.85050   0.24390040E-01
   0.85150   0.23327092E-01
   0.85250   0.23015002E-01
   0.85350   0.23523360E-01
   0.85450   0.24906540E-01
   0.85550   0.27106989E-01
   0.85650   0.29855354E-01
   0.85750   0.32687381E-01
   0.85850   0.35067596E-01
   0.85950   0.36488868E-01
   0.86050   0.36657035E-01
   0.86150   0.35885759E-01
   0.86250   0.35063297E-01
   0.86350   0.35001293E-01
   0.86450   0.36070470E-01
   0.86550   0.38264174E-01
   0.86650   0.41267909E-01
   0.86750   0.44512305E-01
   0.86850   0.47449607E-01
   0.86950   0.49923763E-01
   0.87050   0.52131794E-01
   0.87150   0.54231182E-01
   0.87250   0.56130581E-01
   0.87350   0.57651754E-01
   0.87450   0.58800198E-01
   0.87550   0.59799686E-01
   0.87650   0.60866758E-01
   0.87750   0.61979998E-01
   0.87850   0.62845446E-01
   0.87950   0.63107640E-01
   0.88050   0.62657259E-01
   0.88150   0.61728504E-01
   0.88250   0.60709361E-01
   0.88350   0.59919421E-01
   0.88450   0.59535448E-01
   0.88550   0.59623897E-01
   0.88650   0.60191594E-01
   0.88750   0.61216183E-01
   0.88850   0.62654786E-01
   0.88950   0.64440250E-01
   0.89050   0.66475995E-01
   0.89150   0.68640023E-01
   0.89250   0.70804775E-01
   0.89350   0.72868727E-01
   0.89450   0.74784257E-01
   0.89550   0.76564461E-01
   0.89650   0.78265175E-01
   0.89750   0.79954103E-01
   0.89850   0.81685066E-01
   0.89950   0.83493225E-01
   0.90050   0.85432112E-01
   0.90150   0.87529115E-01
   0.90250   0.89378104E-01
   0.90350   0.90569399E-01
   0.90450   0.91255292E-01
   0.90550   0.91584750E-01
   0.90650   0.91656111E-01
   0.90750   0.91564491E-01
   0.90850   0.91407575E-01
   0.90950   0.91280147E-01
   0.91050   0.91265507E-01
   0.91150   0.91426060E-01
   0.91250   0.91794297E-01
   0.91350   0.92366055E-01
   0.91450   0.93099035E-01
   0.91550   0.93920022E-01
   0.91650   0.94742350E-01
   0.91750   0.95490314E-01
   0.91850   0.96121378E-01
   0.91950   0.96636385E-01
   0.92050   0.97073771E-01
   0.92150   0.97493239E-01
   0.92250   0.97958282E-01
   0.92350   0.98524883E-01
   0.92450   0.99238880E-01
   0.92550   0.10014077E+00
   0.92650   0.10127517E+00
   0.92750   0.10270107E+00
   0.92850   0.10449900E+00
   0.92950   0.10677238E+00
   0.93050   0.10964364E+00
   0.93150   0.11324814E+00
   0.93250   0.11773012E+00
   0.93350   0.12324402E+00
   0.93450   0.12996455E+00
   0.93550   0.13810876E+00
   0.93650   0.14797527E+00
   0.93750   0.16000134E+00
   0.93850   0.17482495E+00
   0.93950   0.19329967E+00
   0.94050   0.21634647E+00
   0.94150   0.24459752E+00
   0.94250   0.27879858E+00
   0.94350   0.32577565E+00
   0.94450   0.41052780E+00
   0.94550   0.47527161E+00
   0.94650   0.49811378E+00
   0.94750   0.62243623E+00
   0.94850   0.61941421E+00
   0.94950   0.57194120E+00
   0.95050   0.54528546E+00
   0.95150   0.54735911E+00
   0.95250   0.56852931E+00
   0.95350   0.57755244E+00
   0.95450   0.56509370E+00
   0.95550   0.53256071E+00
   0.95650   0.50212842E+00
   0.95750   0.50654209E+00
   0.95850   0.55081195E+00
   0.95950   0.59375155E+00
   0.96050   0.62818038E+00
   0.96150   0.66590035E+00
   0.96250   0.66459113E+00
   0.96350   0.66067582E+00
   0.96450   0.64208931E+00
   0.96550   0.64864707E+00
   0.96650   0.62581527E+00
   0.96750   0.56469649E+00
   0.96850   0.53171247E+00
   0.96950   0.51788187E+00
   0.97050   0.48895803E+00
   0.97150   0.45757082E+00
   0.97250   0.44770578E+00
   0.97350   0.44383991E+00
   0.97450   0.43489453E+00
   0.97550   0.42138058E+00
   0.97650   0.40801746E+00
   0.97750   0.39747885E+00
   0.97850   0.38893425E+00
   0.97950   0.38150904E+00
   0.98050   0.37447417E+00
   0.98150   0.36712500E+00
   0.98250   0.35984910E+00
   0.98350   0.35414264E+00
   0.98450   0.35158959E+00
   0.98550   0.35432115E+00
   0.98650   0.36519453E+00
   0.98750   0.38668165E+00
   0.98850   0.41941011E+00
   0.98950   0.45666048E+00
   0.99050   0.48554915E+00
   0.99150   0.50561255E+00
   0.99250   0.52304208E+00
   0.99350   0.53900397E+00
   0.99450   0.54922384E+00
   0.99550   0.55028695E+00
   0.99650   0.54515249E+00
   0.99750   0.54174817E+00
   0.99850   0.54492468E+00
   0.99950   0.55291790E+00
