# Transmission, k-averaged
# Date: 2021-05-13
#   E [eV]           T [G0]
   0.00050   0.14115952E+00
   0.00150   0.72029203E-01
   0.00250   0.18741686E-01
   0.00350   0.12216413E-01
   0.00450   0.71906336E-01
   0.00550   0.37562284E-02
   0.00650   0.60962189E-01
   0.00750   0.34472526E-02
   0.00850   0.54648872E-02
   0.00950   0.27116617E-01
   0.01050   0.32359487E-02
   0.01150   0.41834535E-02
   0.01250   0.51906072E-01
   0.01350   0.75390665E-02
   0.01450   0.32153134E-02
   0.01550   0.45704138E-02
   0.01650   0.28031731E-01
   0.01750   0.18410888E-01
   0.01850   0.43993806E-02
   0.01950   0.33129717E-02
   0.02050   0.53561460E-02
   0.02150   0.26987378E-01
   0.02250   0.28929699E-01
   0.02350   0.55524032E-02
   0.02450   0.31801371E-02
   0.02550   0.33392648E-02
   0.02650   0.64854529E-02
   0.02750   0.38978931E-01
   0.02850   0.22639195E-01
   0.02950   0.48864428E-02
   0.03050   0.26760672E-02
   0.03150   0.24559384E-02
   0.03250   0.36368107E-02
   0.03350   0.11192863E-01
   0.03450   0.71213067E-01
   0.03550   0.79030525E-02
   0.03650   0.28796368E-02
   0.03750   0.19986110E-02
   0.03850   0.21689706E-02
   0.03950   0.37965318E-02
   0.04050   0.14582851E-01
   0.04150   0.45358650E-01
   0.04250   0.75073382E-02
   0.04350   0.35367184E-02
   0.04450   0.29695129E-02
   0.04550   0.37216805E-02
   0.04650   0.60206773E-02
   0.04750   0.10092325E-01
   0.04850   0.11042254E-01
   0.04950   0.78846607E-02
   0.05050   0.56586964E-02
   0.05150   0.47136070E-02
   0.05250   0.45421817E-02
   0.05350   0.49031032E-02
   0.05450   0.56660008E-02
   0.05550   0.65799095E-02
   0.05650   0.71637062E-02
   0.05750   0.70789494E-02
   0.05850   0.65356814E-02
   0.05950   0.59477636E-02
   0.06050   0.55399952E-02
   0.06150   0.53575221E-02
   0.06250   0.53681000E-02
   0.06350   0.55075465E-02
   0.06450   0.56899199E-02
   0.06550   0.58213873E-02
   0.06650   0.58341105E-02
   0.06750   0.57187285E-02
   0.06850   0.55205361E-02
   0.06950   0.53035063E-02
   0.07050   0.51177866E-02
   0.07150   0.49886736E-02
   0.07250   0.49199038E-02
   0.07350   0.49004126E-02
   0.07450   0.49102935E-02
   0.07550   0.49262978E-02
   0.07650   0.49278070E-02
   0.07750   0.49024848E-02
   0.07850   0.48492672E-02
   0.07950   0.47770781E-02
   0.08050   0.47002253E-02
   0.08150   0.46331817E-02
   0.08250   0.45869434E-02
   0.08350   0.45674923E-02
   0.08450   0.45758053E-02
   0.08550   0.46086870E-02
   0.08650   0.46600364E-02
   0.08750   0.47224220E-02
   0.08850   0.47886930E-02
   0.08950   0.48525422E-02
   0.09050   0.49033589E-02
   0.09150   0.48904228E-02
   0.09250   0.46509448E-02
   0.09350   0.42697745E-02
   0.09450   0.39338968E-02
   0.09550   0.36577836E-02
   0.09650   0.34272110E-02
   0.09750   0.32294588E-02
   0.09850   0.30552519E-02
   0.09950   0.28982006E-02
   0.10050   0.27541721E-02
   0.10150   0.26207285E-02
   0.10250   0.24966113E-02
   0.10350   0.23812742E-02
   0.10450   0.22744976E-02
   0.10550   0.21761083E-02
   0.10650   0.20858084E-02
   0.10750   0.20031084E-02
   0.10850   0.19273295E-02
   0.10950   0.18576566E-02
   0.11050   0.17932154E-02
   0.11150   0.17331516E-02
   0.11250   0.16767030E-02
   0.11350   0.16232508E-02
   0.11450   0.15723456E-02
   0.11550   0.15237078E-02
   0.11650   0.14772036E-02
   0.11750   0.14328066E-02
   0.11850   0.13905514E-02
   0.11950   0.13504882E-02
   0.12050   0.13126465E-02
   0.12150   0.12770111E-02
   0.12250   0.12435105E-02
   0.12350   0.12120182E-02
   0.12450   0.11823638E-02
   0.12550   0.11543497E-02
   0.12650   0.11277704E-02
   0.12750   0.11024327E-02
   0.12850   0.10781712E-02
   0.12950   0.10548588E-02
   0.13050   0.10324118E-02
   0.13150   0.10107884E-02
   0.13250   0.98998065E-03
   0.13350   0.97000477E-03
   0.13450   0.95088786E-03
   0.13550   0.93265681E-03
   0.13650   0.91532758E-03
   0.13750   0.89889875E-03
   0.13850   0.88334811E-03
   0.13950   0.86863327E-03
   0.14050   0.85469492E-03
   0.14150   0.84146252E-03
   0.14250   0.82886167E-03
   0.14350   0.81682100E-03
   0.14450   0.80527895E-03
   0.14550   0.79418829E-03
   0.14650   0.78351930E-03
   0.14750   0.77325973E-03
   0.14850   0.76341309E-03
   0.14950   0.75399474E-03
   0.15050   0.74502704E-03
   0.15150   0.73653372E-03
   0.15250   0.72853523E-03
   0.15350   0.72104408E-03
   0.15450   0.71406277E-03
   0.15550   0.70758222E-03
   0.15650   0.70158258E-03
   0.15750   0.69603551E-03
   0.15850   0.69090701E-03
   0.15950   0.68616169E-03
   0.16050   0.68176654E-03
   0.16150   0.67769445E-03
   0.16250   0.67392684E-03
   0.16350   0.67045464E-03
   0.16450   0.66727720E-03
   0.16550   0.66439935E-03
   0.16650   0.66182541E-03
   0.16750   0.65955002E-03
   0.16850   0.65754360E-03
   0.16950   0.65572781E-03
   0.17050   0.65392919E-03
   0.17150   0.65177988E-03
   0.17250   0.64846541E-03
   0.17350   0.64196519E-03
   0.17450   0.62627043E-03
   0.17550   0.58343104E-03
   0.17650   0.51194604E-03
   0.17750   0.45154543E-03
   0.17850   0.40644399E-03
   0.17950   0.37154267E-03
   0.18050   0.34351691E-03
   0.18150   0.32038777E-03
   0.18250   0.30091306E-03
   0.18350   0.28426701E-03
   0.18450   0.26987382E-03
   0.18550   0.25731619E-03
   0.18650   0.24628188E-03
   0.18750   0.23653141E-03
   0.18850   0.22787707E-03
   0.18950   0.22016921E-03
   0.19050   0.21328687E-03
   0.19150   0.20713118E-03
   0.19250   0.20162066E-03
   0.19350   0.19668780E-03
   0.19450   0.19227642E-03
   0.19550   0.18833969E-03
   0.19650   0.18483863E-03
   0.19750   0.18174085E-03
   0.19850   0.17901957E-03
   0.19950   0.17665280E-03
   0.20050   0.17462266E-03
   0.20150   0.17291485E-03
   0.20250   0.17151816E-03
   0.20350   0.17042416E-03
   0.20450   0.16962698E-03
   0.20550   0.16912310E-03
   0.20650   0.16891144E-03
   0.20750   0.16899344E-03
   0.20850   0.16937345E-03
   0.20950   0.17005940E-03
   0.21050   0.17106388E-03
   0.21150   0.17240613E-03
   0.21250   0.17411547E-03
   0.21350   0.17623826E-03
   0.21450   0.17885317E-03
   0.21550   0.18211070E-03
   0.21650   0.18634956E-03
   0.21750   0.19224027E-03
   0.21850   0.19911524E-03
   0.21950   0.20540500E-03
   0.22050   0.21130218E-03
   0.22150   0.21713375E-03
   0.22250   0.22310109E-03
   0.22350   0.22934763E-03
   0.22450   0.23599667E-03
   0.22550   0.24317158E-03
   0.22650   0.25100997E-03
   0.22750   0.25967756E-03
   0.22850   0.26938537E-03
   0.22950   0.28041424E-03
   0.23050   0.29315171E-03
   0.23150   0.30814306E-03
   0.23250   0.32611325E-03
   0.23350   0.34746918E-03
   0.23450   0.36698722E-03
   0.23550   0.36630884E-03
   0.23650   0.35251889E-03
   0.23750   0.33731642E-03
   0.23850   0.32302234E-03
   0.23950   0.30990349E-03
   0.24050   0.29787669E-03
   0.24150   0.28681065E-03
   0.24250   0.27658517E-03
   0.24350   0.26710102E-03
   0.24450   0.25827833E-03
   0.24550   0.25005348E-03
   0.24650   0.24237556E-03
   0.24750   0.23520381E-03
   0.24850   0.22850536E-03
   0.24950   0.22225358E-03
   0.25050   0.21642662E-03
   0.25150   0.21100638E-03
   0.25250   0.20597765E-03
   0.25350   0.20132733E-03
   0.25450   0.19704396E-03
   0.25550   0.19311723E-03
   0.25650   0.18953769E-03
   0.25750   0.18629650E-03
   0.25850   0.18338529E-03
   0.25950   0.18079609E-03
   0.26050   0.17852138E-03
   0.26150   0.17655407E-03
   0.26250   0.17488764E-03
   0.26350   0.17351632E-03
   0.26450   0.17243528E-03
   0.26550   0.17164076E-03
   0.26650   0.17113039E-03
   0.26750   0.17090338E-03
   0.26850   0.17096073E-03
   0.26950   0.17130552E-03
   0.27050   0.17194304E-03
   0.27150   0.17288109E-03
   0.27250   0.17413007E-03
   0.27350   0.17570319E-03
   0.27450   0.17761665E-03
   0.27550   0.17988967E-03
   0.27650   0.18254470E-03
   0.27750   0.18560742E-03
   0.27850   0.18910693E-03
   0.27950   0.19307564E-03
   0.28050   0.19754953E-03
   0.28150   0.20256797E-03
   0.28250   0.20817395E-03
   0.28350   0.21441396E-03
   0.28450   0.22133804E-03
   0.28550   0.22899982E-03
   0.28650   0.23745655E-03
   0.28750   0.24676905E-03
   0.28850   0.25700167E-03
   0.28950   0.26822230E-03
   0.29050   0.28050179E-03
   0.29150   0.29391289E-03
   0.29250   0.30852691E-03
   0.29350   0.32440489E-03
   0.29450   0.34157265E-03
   0.29550   0.35994480E-03
   0.29650   0.37906363E-03
   0.29750   0.39701691E-03
   0.29850   0.40541688E-03
   0.29950   0.38700315E-03
   0.30050   0.35872150E-03
   0.30150   0.33594292E-03
   0.30250   0.31823886E-03
   0.30350   0.30399725E-03
   0.30450   0.29210167E-03
   0.30550   0.28181716E-03
   0.30650   0.27264390E-03
   0.30750   0.26422882E-03
   0.30850   0.25631508E-03
   0.30950   0.24871199E-03
   0.31050   0.24127694E-03
   0.31150   0.23390363E-03
   0.31250   0.22651457E-03
   0.31350   0.21905570E-03
   0.31450   0.21149253E-03
   0.31550   0.20380723E-03
   0.31650   0.19599612E-03
   0.31750   0.18806763E-03
   0.31850   0.18004033E-03
   0.31950   0.17194117E-03
   0.32050   0.16380378E-03
   0.32150   0.15566692E-03
   0.32250   0.14757292E-03
   0.32350   0.13956639E-03
   0.32450   0.13169304E-03
   0.32550   0.12399863E-03
   0.32650   0.11652820E-03
   0.32750   0.10932559E-03
   0.32850   0.10243308E-03
   0.32950   0.95891541E-04
   0.33050   0.89740766E-04
   0.33150   0.84020314E-04
   0.33250   0.78770834E-04
   0.33350   0.74036056E-04
   0.33450   0.69865600E-04
   0.33550   0.66318949E-04
   0.33650   0.63470914E-04
   0.33750   0.61418927E-04
   0.33850   0.60292048E-04
   0.33950   0.60259790E-04
   0.34050   0.61532992E-04
   0.34150   0.64331631E-04
   0.34250   0.68747562E-04
   0.34350   0.74326919E-04
   0.34450   0.79109741E-04
   0.34550   0.78589634E-04
   0.34650   0.68740912E-04
   0.34750   0.57003344E-04
   0.34850   0.57901798E-04
   0.34950   0.67955989E-04
   0.35050   0.75644748E-04
   0.35150   0.78391167E-04
   0.35250   0.78469588E-04
   0.35350   0.77976954E-04
   0.35450   0.77987192E-04
   0.35550   0.78934318E-04
   0.35650   0.80966347E-04
   0.35750   0.84131338E-04
   0.35850   0.88463436E-04
   0.35950   0.94026429E-04
   0.36050   0.10094987E-03
   0.36150   0.10948182E-03
   0.36250   0.11989313E-03
   0.36350   0.13116279E-03
   0.36450   0.14226601E-03
   0.36550   0.15360863E-03
   0.36650   0.16542916E-03
   0.36750   0.17774764E-03
   0.36850   0.19042083E-03
   0.36950   0.20311143E-03
   0.37050   0.21520176E-03
   0.37150   0.22565217E-03
   0.37250   0.23279607E-03
   0.37350   0.23407559E-03
   0.37450   0.22577579E-03
   0.37550   0.20297950E-03
   0.37650   0.16042806E-03
   0.37750   0.96302327E-04
   0.37850   0.25018633E-04
   0.37950   0.17129292E-04
   0.38050   0.28943882E-03
   0.38150   0.10359717E-02
   0.38250   0.13390221E-02
   0.38350   0.95043745E-03
   0.38450   0.77468803E-03
   0.38550   0.89457119E-03
   0.38650   0.10429953E-02
   0.38750   0.10133734E-02
   0.38850   0.88421511E-03
   0.38950   0.77900215E-03
   0.39050   0.72668307E-03
   0.39150   0.71391533E-03
   0.39250   0.72336145E-03
   0.39350   0.74252998E-03
   0.39450   0.76418056E-03
   0.39550   0.78694936E-03
   0.39650   0.82103012E-03
   0.39750   0.90922992E-03
   0.39850   0.10704978E-02
   0.39950   0.21863272E-03
   0.40050   0.53718814E-03
   0.40150   0.85294037E-03
   0.40250   0.78005611E-03
   0.40350   0.49964525E-03
   0.40450   0.28291706E-02
   0.40550   0.64232275E-02
   0.40650   0.50831060E-02
   0.40750   0.31489271E-02
   0.40850   0.21275959E-02
   0.40950   0.15152353E-02
   0.41050   0.11416253E-02
   0.41150   0.94521005E-03
   0.41250   0.84149448E-03
   0.41350   0.78636943E-03
   0.41450   0.74743218E-03
   0.41550   0.69638435E-03
   0.41650   0.64521778E-03
   0.41750   0.60232036E-03
   0.41850   0.57229190E-03
   0.41950   0.55333640E-03
   0.42050   0.54041477E-03
   0.42150   0.52959193E-03
   0.42250   0.51964103E-03
   0.42350   0.51094551E-03
   0.42450   0.50384906E-03
   0.42550   0.49802748E-03
   0.42650   0.49282127E-03
   0.42750   0.48775368E-03
   0.42850   0.48274788E-03
   0.42950   0.47802503E-03
   0.43050   0.47387017E-03
   0.43150   0.47044904E-03
   0.43250   0.46776814E-03
   0.43350   0.46575244E-03
   0.43450   0.46434722E-03
   0.43550   0.46356727E-03
   0.43650   0.46347827E-03
   0.43750   0.46413983E-03
   0.43850   0.46554705E-03
   0.43950   0.46759614E-03
   0.44050   0.47008388E-03
   0.44150   0.47273783E-03
   0.44250   0.47526523E-03
   0.44350   0.47740497E-03
   0.44450   0.47896925E-03
   0.44550   0.47986678E-03
   0.44650   0.48010531E-03
   0.44750   0.47977554E-03
   0.44850   0.47902300E-03
   0.44950   0.47801650E-03
   0.45050   0.47692287E-03
   0.45150   0.47589449E-03
   0.45250   0.47507053E-03
   0.45350   0.47458801E-03
   0.45450   0.47459549E-03
   0.45550   0.47526220E-03
   0.45650   0.47677811E-03
   0.45750   0.47934274E-03
   0.45850   0.48314477E-03
   0.45950   0.48833631E-03
   0.46050   0.49500755E-03
   0.46150   0.50316774E-03
   0.46250   0.51273708E-03
   0.46350   0.52355108E-03
   0.46450   0.53537439E-03
   0.46550   0.54792088E-03
   0.46650   0.56087214E-03
   0.46750   0.57389354E-03
   0.46850   0.58664556E-03
   0.46950   0.59879391E-03
   0.47050   0.61002118E-03
   0.47150   0.62004232E-03
   0.47250   0.62862202E-03
   0.47350   0.63559157E-03
   0.47450   0.64086250E-03
   0.47550   0.64443605E-03
   0.47650   0.64640859E-03
   0.47750   0.64697489E-03
   0.47850   0.64642698E-03
   0.47950   0.64514496E-03
   0.48050   0.64357521E-03
   0.48150   0.64219581E-03
   0.48250   0.64147188E-03
   0.48350   0.64180692E-03
   0.48450   0.64349262E-03
   0.48550   0.64664998E-03
   0.48650   0.65114023E-03
   0.48750   0.65640709E-03
   0.48850   0.66119415E-03
   0.48950   0.66325656E-03
   0.49050   0.66082017E-03
   0.49150   0.66038279E-03
   0.49250   0.67523302E-03
   0.49350   0.70004200E-03
   0.49450   0.72230661E-03
   0.49550   0.73877966E-03
   0.49650   0.75101835E-03
   0.49750   0.76263811E-03
   0.49850   0.77976612E-03
   0.49950   0.79789211E-03
   0.50050   0.80974749E-03
   0.50150   0.81719470E-03
   0.50250   0.82229718E-03
   0.50350   0.82635559E-03
   0.50450   0.83021633E-03
   0.50550   0.83446287E-03
   0.50650   0.83951739E-03
   0.50750   0.84569782E-03
   0.50850   0.85324899E-03
   0.50950   0.86235726E-03
   0.51050   0.87315025E-03
   0.51150   0.88568090E-03
   0.51250   0.89988916E-03
   0.51350   0.91552536E-03
   0.51450   0.93200046E-03
   0.51550   0.94808190E-03
   0.51650   0.96125342E-03
   0.51750   0.96633867E-03
   0.51850   0.95284818E-03
   0.51950   0.90492348E-03
   0.52050   0.86568954E-03
   0.52150   0.11502629E-02
   0.52250   0.14134437E-02
   0.52350   0.14123378E-02
   0.52450   0.13653196E-02
   0.52550   0.13268583E-02
   0.52650   0.13026489E-02
   0.52750   0.12914641E-02
   0.52850   0.12918676E-02
   0.52950   0.13031331E-02
   0.53050   0.13250575E-02
   0.53150   0.13563453E-02
   0.53250   0.13838614E-02
   0.53350   0.13458795E-02
   0.53450   0.12393265E-02
   0.53550   0.11366034E-02
   0.53650   0.10503271E-02
   0.53750   0.97797695E-03
   0.53850   0.91644307E-03
   0.53950   0.86333853E-03
   0.54050   0.81688358E-03
   0.54150   0.77569892E-03
   0.54250   0.73863281E-03
   0.54350   0.70459716E-03
   0.54450   0.67235588E-03
   0.54550   0.64023084E-03
   0.54650   0.60654065E-03
   0.54750   0.57479611E-03
   0.54850   0.53057779E-03
   0.54950   0.44582633E-03
   0.55050   0.64750604E-03
   0.55150   0.63120475E-03
   0.55250   0.61986147E-03
   0.55350   0.62895665E-03
   0.55450   0.70251490E-03
   0.55550   0.11703704E-02
   0.55650   0.14004332E-02
   0.55750   0.65706793E-03
   0.55850   0.44980098E-03
   0.55950   0.85203559E-03
   0.56050   0.27923246E-02
   0.56150   0.97270105E-02
   0.56250   0.27479116E-01
   0.56350   0.17287951E-01
   0.56450   0.98026693E-02
   0.56550   0.84996559E-02
   0.56650   0.60224538E-02
   0.56750   0.47095520E-02
   0.56850   0.47304616E-02
   0.56950   0.45828335E-02
   0.57050   0.43414161E-02
   0.57150   0.40284609E-02
   0.57250   0.38694574E-02
   0.57350   0.35446917E-02
   0.57450   0.29888549E-02
   0.57550   0.25883936E-02
   0.57650   0.23678301E-02
   0.57750   0.21763728E-02
   0.57850   0.19386277E-02
   0.57950   0.17337289E-02
   0.58050   0.16299073E-02
   0.58150   0.16229174E-02
   0.58250   0.16819263E-02
   0.58350   0.17700616E-02
   0.58450   0.18653008E-02
   0.58550   0.19701971E-02
   0.58650   0.20926215E-02
   0.58750   0.22255974E-02
   0.58850   0.23455766E-02
   0.58950   0.24287440E-02
   0.59050   0.24695946E-02
   0.59150   0.24806706E-02
   0.59250   0.24765297E-02
   0.59350   0.24612930E-02
   0.59450   0.24280760E-02
   0.59550   0.23671645E-02
   0.59650   0.22759275E-02
   0.59750   0.21626165E-02
   0.59850   0.20415729E-02
   0.59950   0.19254527E-02
   0.60050   0.18208110E-02
   0.60150   0.17282715E-02
   0.60250   0.16452988E-02
   0.60350   0.15694817E-02
   0.60450   0.15007793E-02
   0.60550   0.14418073E-02
   0.60650   0.13964197E-02
   0.60750   0.13678524E-02
   0.60850   0.13575375E-02
   0.60950   0.13648575E-02
   0.61050   0.13875861E-02
   0.61150   0.14227559E-02
   0.61250   0.14677704E-02
   0.61350   0.15214755E-02
   0.61450   0.15847887E-02
   0.61550   0.16604997E-02
   0.61650   0.17510199E-02
   0.61750   0.18427743E-02
   0.61850   0.18477769E-02
   0.61950   0.17509039E-02
   0.62050   0.16456756E-02
   0.62150   0.15574376E-02
   0.62250   0.14955838E-02
   0.62350   0.14457689E-02
   0.62450   0.13871491E-02
   0.62550   0.13224286E-02
   0.62650   0.12555991E-02
   0.62750   0.11889241E-02
   0.62850   0.11236236E-02
   0.62950   0.10603503E-02
   0.63050   0.99947944E-03
   0.63150   0.94128714E-03
   0.63250   0.88604499E-03
   0.63350   0.83404878E-03
   0.63450   0.78559952E-03
   0.63550   0.74096129E-03
   0.63650   0.70031942E-03
   0.63750   0.66375564E-03
   0.63850   0.63124503E-03
   0.63950   0.60267287E-03
   0.64050   0.57786115E-03
   0.64150   0.55659661E-03
   0.64250   0.53865317E-03
   0.64350   0.52380550E-03
   0.64450   0.51183451E-03
   0.64550   0.50252711E-03
   0.64650   0.49567252E-03
   0.64750   0.49105909E-03
   0.64850   0.48847281E-03
   0.64950   0.48769944E-03
   0.65050   0.48852974E-03
   0.65150   0.49076794E-03
   0.65250   0.49424212E-03
   0.65350   0.49881521E-03
   0.65450   0.50439575E-03
   0.65550   0.51094766E-03
   0.65650   0.51850011E-03
   0.65750   0.52715908E-03
   0.65850   0.53712621E-03
   0.65950   0.54873305E-03
   0.66050   0.56251406E-03
   0.66150   0.57937350E-03
   0.66250   0.60103100E-03
   0.66350   0.63147809E-03
   0.66450   0.68344129E-03
   0.66550   0.82475034E-03
   0.66650   0.16683405E-02
   0.66750   0.19738113E-02
   0.66850   0.91163861E-03
   0.66950   0.86952088E-03
   0.67050   0.96737168E-03
   0.67150   0.11288370E-02
   0.67250   0.14221696E-02
   0.67350   0.21209777E-02
   0.67450   0.41127540E-02
   0.67550   0.62748552E-02
   0.67650   0.84096454E-02
   0.67750   0.16299197E-01
   0.67850   0.22206865E-01
   0.67950   0.17306956E-01
   0.68050   0.27233139E-01
   0.68150   0.26190460E-01
   0.68250   0.10089682E-01
   0.68350   0.10342093E-01
   0.68450   0.11611714E-01
   0.68550   0.11062288E-01
   0.68650   0.10588492E-01
   0.68750   0.10379720E-01
   0.68850   0.10147966E-01
   0.68950   0.99950572E-02
   0.69050   0.92498241E-02
   0.69150   0.83678719E-02
   0.69250   0.77386773E-02
   0.69350   0.73631420E-02
   0.69450   0.71878084E-02
   0.69550   0.71475049E-02
   0.69650   0.71457168E-02
   0.69750   0.70659951E-02
   0.69850   0.68505001E-02
   0.69950   0.65570143E-02
   0.70050   0.62824404E-02
   0.70150   0.60736202E-02
   0.70250   0.59118234E-02
   0.70350   0.57317694E-02
   0.70450   0.54567605E-02
   0.70550   0.50185942E-02
   0.70650   0.44931807E-02
   0.70750   0.40457412E-02
   0.70850   0.36990631E-02
   0.70950   0.34377982E-02
   0.71050   0.32431642E-02
   0.71150   0.30985638E-02
   0.71250   0.29917373E-02
   0.71350   0.29151847E-02
   0.71450   0.28648190E-02
   0.71550   0.28376747E-02
   0.71650   0.28298534E-02
   0.71750   0.28354961E-02
   0.71850   0.28470540E-02
   0.71950   0.28566401E-02
   0.72050   0.28577615E-02
   0.72150   0.28465218E-02
   0.72250   0.28217447E-02
   0.72350   0.27841716E-02
   0.72450   0.27353631E-02
   0.72550   0.26768853E-02
   0.72650   0.26100231E-02
   0.72750   0.25359364E-02
   0.72850   0.24560308E-02
   0.72950   0.23723554E-02
   0.73050   0.22880656E-02
   0.73150   0.22084683E-02
   0.73250   0.21409916E-02
   0.73350   0.20791788E-02
   0.73450   0.20160316E-02
   0.73550   0.19553632E-02
   0.73650   0.19002724E-02
   0.73750   0.18525678E-02
   0.73850   0.18133011E-02
   0.73950   0.17830393E-02
   0.74050   0.17619994E-02
   0.74150   0.17501195E-02
   0.74250   0.17470961E-02
   0.74350   0.17524068E-02
   0.74450   0.17653286E-02
   0.74550   0.17849606E-02
   0.74650   0.18102614E-02
   0.74750   0.18401017E-02
   0.74850   0.18733330E-02
   0.74950   0.19088672E-02
   0.75050   0.19457554E-02
   0.75150   0.19832577E-02
   0.75250   0.20208952E-02
   0.75350   0.20584879E-02
   0.75450   0.20961845E-02
   0.75550   0.21345206E-02
   0.75650   0.21745567E-02
   0.75750   0.22182353E-02
   0.75850   0.22693267E-02
   0.75950   0.23362497E-02
   0.76050   0.24423951E-02
   0.76150   0.26783575E-02
   0.76250   0.36370028E-02
   0.76350   0.96883019E-02
   0.76450   0.98968120E-02
   0.76550   0.35449740E-01
   0.76650   0.81444122E-02
   0.76750   0.40415470E-02
   0.76850   0.36910207E-02
   0.76950   0.39181309E-02
   0.77050   0.45341621E-02
   0.77150   0.57767583E-02
   0.77250   0.84478948E-02
   0.77350   0.15048311E-01
   0.77450   0.33407334E-01
   0.77550   0.49291719E-01
   0.77650   0.43445058E-01
   0.77750   0.36438942E-01
   0.77850   0.29516991E-01
   0.77950   0.24661690E-01
   0.78050   0.20448692E-01
   0.78150   0.16314808E-01
   0.78250   0.14161866E-01
   0.78350   0.12702143E-01
   0.78450   0.11698283E-01
   0.78550   0.11634764E-01
   0.78650   0.12368910E-01
   0.78750   0.13301766E-01
   0.78850   0.13622633E-01
   0.78950   0.13271392E-01
   0.79050   0.12905074E-01
   0.79150   0.12830603E-01
   0.79250   0.12627945E-01
   0.79350   0.11912821E-01
   0.79450   0.11014421E-01
   0.79550   0.10349346E-01
   0.79650   0.99790581E-02
   0.79750   0.96927704E-02
   0.79850   0.91341734E-02
   0.79950   0.81197554E-02
   0.80050   0.69679548E-02
   0.80150   0.61165704E-02
   0.80250   0.56693740E-02
   0.80350   0.55135265E-02
   0.80450   0.55161077E-02
   0.80550   0.55848267E-02
   0.80650   0.56697614E-02
   0.80750   0.57545165E-02
   0.80850   0.58445060E-02
   0.80950   0.59511210E-02
   0.81050   0.60785892E-02
   0.81150   0.62219533E-02
   0.81250   0.63721472E-02
   0.81350   0.65207230E-02
   0.81450   0.66623474E-02
   0.81550   0.67958073E-02
   0.81650   0.69238287E-02
   0.81750   0.70513445E-02
   0.81850   0.71823089E-02
   0.81950   0.73164855E-02
   0.82050   0.74482127E-02
   0.82150   0.75684660E-02
   0.82250   0.76701627E-02
   0.82350   0.77555780E-02
   0.82450   0.78464532E-02
   0.82550   0.80047641E-02
   0.82650   0.82806172E-02
   0.82750   0.85655600E-02
   0.82850   0.88469647E-02
   0.82950   0.91569722E-02
   0.83050   0.95141847E-02
   0.83150   0.99256439E-02
   0.83250   0.10391911E-01
   0.83350   0.10911830E-01
   0.83450   0.11487397E-01
   0.83550   0.12129329E-01
   0.83650   0.12865677E-01
   0.83750   0.13764278E-01
   0.83850   0.15022826E-01
   0.83950   0.17526882E-01
   0.84050   0.29614344E-01
   0.84150   0.26810745E-01
   0.84250   0.19244224E-01
   0.84350   0.18671140E-01
   0.84450   0.18616041E-01
   0.84550   0.18911514E-01
   0.84650   0.19520279E-01
   0.84750   0.20404998E-01
   0.84850   0.21555373E-01
   0.84950   0.23388801E-01
   0.85050   0.26723253E-01
   0.85150   0.32909606E-01
   0.85250   0.41915543E-01
   0.85350   0.43988030E-01
   0.85450   0.36919851E-01
   0.85550   0.32883011E-01
   0.85650   0.33495665E-01
   0.85750   0.36753077E-01
   0.85850   0.36901437E-01
   0.85950   0.32254238E-01
   0.86050   0.29728776E-01
   0.86150   0.29605247E-01
   0.86250   0.32122076E-01
   0.86350   0.39843284E-01
   0.86450   0.57628933E-01
   0.86550   0.60280047E-01
   0.86650   0.46968296E-01
   0.86750   0.46534356E-01
   0.86850   0.56518458E-01
   0.86950   0.62621690E-01
   0.87050   0.59350103E-01
   0.87150   0.52462887E-01
   0.87250   0.46487760E-01
   0.87350   0.42767458E-01
   0.87450   0.40415466E-01
   0.87550   0.37777208E-01
   0.87650   0.35030477E-01
   0.87750   0.32984700E-01
   0.87850   0.31688984E-01
   0.87950   0.31084571E-01
   0.88050   0.31234602E-01
   0.88150   0.32385234E-01
   0.88250   0.34827568E-01
   0.88350   0.38092628E-01
   0.88450   0.39719813E-01
   0.88550   0.37551705E-01
   0.88650   0.33182092E-01
   0.88750   0.29048957E-01
   0.88850   0.26161237E-01
   0.88950   0.24556631E-01
   0.89050   0.23931602E-01
   0.89150   0.24013229E-01
   0.89250   0.24734182E-01
   0.89350   0.26216177E-01
   0.89450   0.28556421E-01
   0.89550   0.31475332E-01
   0.89650   0.34310874E-01
   0.89750   0.36614373E-01
   0.89850   0.38523227E-01
   0.89950   0.40615525E-01
   0.90050   0.43889262E-01
   0.90150   0.48998050E-01
   0.90250   0.54595537E-01
   0.90350   0.60133573E-01
   0.90450   0.65677322E-01
   0.90550   0.71401969E-01
   0.90650   0.78243859E-01
   0.90750   0.84875569E-01
   0.90850   0.81634067E-01
   0.90950   0.82866862E-01
   0.91050   0.85683987E-01
   0.91150   0.88893287E-01
   0.91250   0.92372328E-01
   0.91350   0.96165538E-01
   0.91450   0.10038620E+00
   0.91550   0.10523427E+00
   0.91650   0.11102254E+00
   0.91750   0.11817870E+00
   0.91850   0.12715945E+00
   0.91950   0.13794810E+00
   0.92050   0.14763644E+00
   0.92150   0.14879526E+00
   0.92250   0.15134765E+00
   0.92350   0.15540759E+00
   0.92450   0.15353581E+00
   0.92550   0.14782444E+00
   0.92650   0.14254028E+00
   0.92750   0.14117827E+00
   0.92850   0.14518036E+00
   0.92950   0.15081629E+00
   0.93050   0.15691678E+00
   0.93150   0.16497262E+00
   0.93250   0.17333426E+00
   0.93350   0.18246025E+00
   0.93450   0.19392720E+00
   0.93550   0.20879543E+00
   0.93650   0.22686185E+00
   0.93750   0.24536502E+00
   0.93850   0.25824279E+00
   0.93950   0.25987530E+00
   0.94050   0.25314987E+00
   0.94150   0.25005513E+00
   0.94250   0.25678727E+00
   0.94350   0.26664072E+00
   0.94450   0.27292079E+00
   0.94550   0.27520645E+00
   0.94650   0.28095609E+00
   0.94750   0.29129973E+00
   0.94850   0.30512044E+00
   0.94950   0.32084641E+00
   0.95050   0.33624369E+00
   0.95150   0.34903741E+00
   0.95250   0.35805893E+00
   0.95350   0.36387530E+00
   0.95450   0.36873889E+00
   0.95550   0.37620020E+00
   0.95650   0.38771424E+00
   0.95750   0.40062401E+00
   0.95850   0.41385949E+00
   0.95950   0.42679834E+00
   0.96050   0.43884003E+00
   0.96150   0.44966403E+00
   0.96250   0.45921531E+00
   0.96350   0.46795145E+00
   0.96450   0.47695512E+00
   0.96550   0.48534599E+00
   0.96650   0.49307695E+00
   0.96750   0.50032842E+00
   0.96850   0.50718009E+00
   0.96950   0.51355159E+00
   0.97050   0.51917130E+00
   0.97150   0.52381039E+00
   0.97250   0.52792400E+00
   0.97350   0.53283328E+00
   0.97450   0.53943807E+00
   0.97550   0.54730445E+00
   0.97650   0.55598682E+00
   0.97750   0.56543314E+00
   0.97850   0.57538366E+00
   0.97950   0.58547449E+00
   0.98050   0.59531385E+00
   0.98150   0.60475701E+00
   0.98250   0.61419761E+00
   0.98350   0.62467152E+00
   0.98450   0.63772970E+00
   0.98550   0.65528899E+00
   0.98650   0.67977339E+00
   0.98750   0.71263987E+00
   0.98850   0.74663645E+00
   0.98950   0.77712333E+00
   0.99050   0.80267668E+00
   0.99150   0.82255644E+00
   0.99250   0.83690441E+00
   0.99350   0.84651005E+00
   0.99450   0.85169446E+00
   0.99550   0.85236990E+00
   0.99650   0.84747922E+00
   0.99750   0.83630586E+00
   0.99850   0.82069492E+00
   0.99950   0.80646169E+00
