# Transmission, k-averaged
# Date: 2021-05-13
#   E [eV]           T [G0]
   0.00050   0.43560201E+00
   0.00150   0.12501587E+00
   0.00250   0.23538807E-01
   0.00350   0.11488729E-01
   0.00450   0.50233070E-01
   0.00550   0.20194068E-02
   0.00650   0.26770856E-01
   0.00750   0.13098676E-02
   0.00850   0.18816418E-02
   0.00950   0.87519241E-02
   0.01050   0.10026084E-02
   0.01150   0.12649694E-02
   0.01250   0.15490464E-01
   0.01350   0.22380878E-02
   0.01450   0.95499674E-03
   0.01550   0.13641445E-02
   0.01650   0.84370235E-02
   0.01750   0.56044720E-02
   0.01850   0.13581894E-02
   0.01950   0.10400065E-02
   0.02050   0.17140605E-02
   0.02150   0.88262977E-02
   0.02250   0.96941115E-02
   0.02350   0.19113057E-02
   0.02450   0.11276026E-02
   0.02550   0.12229676E-02
   0.02650   0.24600255E-02
   0.02750   0.15353458E-01
   0.02850   0.92828944E-02
   0.02950   0.20902937E-02
   0.03050   0.11963131E-02
   0.03150   0.11484661E-02
   0.03250   0.17787754E-02
   0.03350   0.57166149E-02
   0.03450   0.37845455E-01
   0.03550   0.43445369E-02
   0.03650   0.16235256E-02
   0.03750   0.11426117E-02
   0.03850   0.12401385E-02
   0.03950   0.21375553E-02
   0.04050   0.79586133E-02
   0.04150   0.23662318E-01
   0.04250   0.37099514E-02
   0.04350   0.16592745E-02
   0.04450   0.13652786E-02
   0.04550   0.18110998E-02
   0.04650   0.31487716E-02
   0.04750   0.55057076E-02
   0.04850   0.61475514E-02
   0.04950   0.44219708E-02
   0.05050   0.31738598E-02
   0.05150   0.26344468E-02
   0.05250   0.25264004E-02
   0.05350   0.27145066E-02
   0.05450   0.31257689E-02
   0.05550   0.36229943E-02
   0.05650   0.39443318E-02
   0.05750   0.39052358E-02
   0.05850   0.36194983E-02
   0.05950   0.33126352E-02
   0.06050   0.31081445E-02
   0.06150   0.30321558E-02
   0.06250   0.30685754E-02
   0.06350   0.31830573E-02
   0.06450   0.33274733E-02
   0.06550   0.34468612E-02
   0.06650   0.34990287E-02
   0.06750   0.34750414E-02
   0.06850   0.33991679E-02
   0.06950   0.33087593E-02
   0.07050   0.32345690E-02
   0.07150   0.31931479E-02
   0.07250   0.31879225E-02
   0.07350   0.32127108E-02
   0.07450   0.32550718E-02
   0.07550   0.32996782E-02
   0.07650   0.33323031E-02
   0.07750   0.33438560E-02
   0.07850   0.33327781E-02
   0.07950   0.33045039E-02
   0.08050   0.32684684E-02
   0.08150   0.32344763E-02
   0.08250   0.32100198E-02
   0.08350   0.31990306E-02
   0.08450   0.32017448E-02
   0.08550   0.32152208E-02
   0.08650   0.32342470E-02
   0.08750   0.32525577E-02
   0.08850   0.32642630E-02
   0.08950   0.32652195E-02
   0.09050   0.32539335E-02
   0.09150   0.32318626E-02
   0.09250   0.32058363E-02
   0.09350   0.31873130E-02
   0.09450   0.31784396E-02
   0.09550   0.31773832E-02
   0.09650   0.31817050E-02
   0.09750   0.31887132E-02
   0.09850   0.31958530E-02
   0.09950   0.32010879E-02
   0.10050   0.32031694E-02
   0.10150   0.32017289E-02
   0.10250   0.31971922E-02
   0.10350   0.31905491E-02
   0.10450   0.31830587E-02
   0.10550   0.31759597E-02
   0.10650   0.31702435E-02
   0.10750   0.31665179E-02
   0.10850   0.31649633E-02
   0.10950   0.31653661E-02
   0.11050   0.31672132E-02
   0.11150   0.31698190E-02
   0.11250   0.31724658E-02
   0.11350   0.31745303E-02
   0.11450   0.31755809E-02
   0.11550   0.31754295E-02
   0.11650   0.31741364E-02
   0.11750   0.31719697E-02
   0.11850   0.31693352E-02
   0.11950   0.31666907E-02
   0.12050   0.31644632E-02
   0.12150   0.31629812E-02
   0.12250   0.31624329E-02
   0.12350   0.31628483E-02
   0.12450   0.31641112E-02
   0.12550   0.31659883E-02
   0.12650   0.31681764E-02
   0.12750   0.31703555E-02
   0.12850   0.31722374E-02
   0.12950   0.31736097E-02
   0.13050   0.31743611E-02
   0.13150   0.31744908E-02
   0.13250   0.31740987E-02
   0.13350   0.31733632E-02
   0.13450   0.31725049E-02
   0.13550   0.31717510E-02
   0.13650   0.31712998E-02
   0.13750   0.31712917E-02
   0.13850   0.31717925E-02
   0.13950   0.31727881E-02
   0.14050   0.31741909E-02
   0.14150   0.31758551E-02
   0.14250   0.31776032E-02
   0.14350   0.31792501E-02
   0.14450   0.31806324E-02
   0.14550   0.31816303E-02
   0.14650   0.31821835E-02
   0.14750   0.31822969E-02
   0.14850   0.31820387E-02
   0.14950   0.31815269E-02
   0.15050   0.31809120E-02
   0.15150   0.31803548E-02
   0.15250   0.31800040E-02
   0.15350   0.31799767E-02
   0.15450   0.31803446E-02
   0.15550   0.31811271E-02
   0.15650   0.31822913E-02
   0.15750   0.31837595E-02
   0.15850   0.31854243E-02
   0.15950   0.31871658E-02
   0.16050   0.31888725E-02
   0.16150   0.31904590E-02
   0.16250   0.31918839E-02
   0.16350   0.31931575E-02
   0.16450   0.31943468E-02
   0.16550   0.31955699E-02
   0.16650   0.31969850E-02
   0.16750   0.31987748E-02
   0.16850   0.32011250E-02
   0.16950   0.32042055E-02
   0.17050   0.32081518E-02
   0.17150   0.32130482E-02
   0.17250   0.32189190E-02
   0.17350   0.32257184E-02
   0.17450   0.32332938E-02
   0.17550   0.32411867E-02
   0.17650   0.32487724E-02
   0.17750   0.32565964E-02
   0.17850   0.32651201E-02
   0.17950   0.32745013E-02
   0.18050   0.32848460E-02
   0.18150   0.32962533E-02
   0.18250   0.33088198E-02
   0.18350   0.33226383E-02
   0.18450   0.33377968E-02
   0.18550   0.33543766E-02
   0.18650   0.33724529E-02
   0.18750   0.33920938E-02
   0.18850   0.34133631E-02
   0.18950   0.34363207E-02
   0.19050   0.34610264E-02
   0.19150   0.34875427E-02
   0.19250   0.35159381E-02
   0.19350   0.35462896E-02
   0.19450   0.35786876E-02
   0.19550   0.36132380E-02
   0.19650   0.36500643E-02
   0.19750   0.36893107E-02
   0.19850   0.37311425E-02
   0.19950   0.37757482E-02
   0.20050   0.38233395E-02
   0.20150   0.38741527E-02
   0.20250   0.39284504E-02
   0.20350   0.39865230E-02
   0.20450   0.40486944E-02
   0.20550   0.41153259E-02
   0.20650   0.41868323E-02
   0.20750   0.42636939E-02
   0.20850   0.43464885E-02
   0.20950   0.44359318E-02
   0.21050   0.45329486E-02
   0.21150   0.46387883E-02
   0.21250   0.47552329E-02
   0.21350   0.48849965E-02
   0.21450   0.50325734E-02
   0.21550   0.52062697E-02
   0.21650   0.54232529E-02
   0.21750   0.57080458E-02
   0.21850   0.59995078E-02
   0.21950   0.62260847E-02
   0.22050   0.64082346E-02
   0.22150   0.65623946E-02
   0.22250   0.66961464E-02
   0.22350   0.68133064E-02
   0.22450   0.69159842E-02
   0.22550   0.70054345E-02
   0.22650   0.70824493E-02
   0.22750   0.71475627E-02
   0.22850   0.72011682E-02
   0.22950   0.72435886E-02
   0.23050   0.72751278E-02
   0.23150   0.72961017E-02
   0.23250   0.73068771E-02
   0.23350   0.73079313E-02
   0.23450   0.73000332E-02
   0.23550   0.72839442E-02
   0.23650   0.72595808E-02
   0.23750   0.72273421E-02
   0.23850   0.71879122E-02
   0.23950   0.71420204E-02
   0.24050   0.70904302E-02
   0.24150   0.70339469E-02
   0.24250   0.69734221E-02
   0.24350   0.69097518E-02
   0.24450   0.68438761E-02
   0.24550   0.67767710E-02
   0.24650   0.67094439E-02
   0.24750   0.66429242E-02
   0.24850   0.65782545E-02
   0.24950   0.65164780E-02
   0.25050   0.64586322E-02
   0.25150   0.64057345E-02
   0.25250   0.63587758E-02
   0.25350   0.63187131E-02
   0.25450   0.62864618E-02
   0.25550   0.62628929E-02
   0.25650   0.62488313E-02
   0.25750   0.62450590E-02
   0.25850   0.62523163E-02
   0.25950   0.62713129E-02
   0.26050   0.63027344E-02
   0.26150   0.63472595E-02
   0.26250   0.64055757E-02
   0.26350   0.64783990E-02
   0.26450   0.65664998E-02
   0.26550   0.66707279E-02
   0.26650   0.67920457E-02
   0.26750   0.69315606E-02
   0.26850   0.70905648E-02
   0.26950   0.72705778E-02
   0.27050   0.74733910E-02
   0.27150   0.77011213E-02
   0.27250   0.79562664E-02
   0.27350   0.82417680E-02
   0.27450   0.85610785E-02
   0.27550   0.89182416E-02
   0.27650   0.93179783E-02
   0.27750   0.97657777E-02
   0.27850   0.10268016E-01
   0.27950   0.10832069E-01
   0.28050   0.11466458E-01
   0.28150   0.12180998E-01
   0.28250   0.12986976E-01
   0.28350   0.13897342E-01
   0.28450   0.14926919E-01
   0.28550   0.16092639E-01
   0.28650   0.17413795E-01
   0.28750   0.18912299E-01
   0.28850   0.20612966E-01
   0.28950   0.22543803E-01
   0.29050   0.24736280E-01
   0.29150   0.27225597E-01
   0.29250   0.30050922E-01
   0.29350   0.33255577E-01
   0.29450   0.36887150E-01
   0.29550   0.40997483E-01
   0.29650   0.45642484E-01
   0.29750   0.50881572E-01
   0.29850   0.56776170E-01
   0.29950   0.63390717E-01
   0.30050   0.70800550E-01
   0.30150   0.79079300E-01
   0.30250   0.88297792E-01
   0.30350   0.98525763E-01
   0.30450   0.10983016E+00
   0.30550   0.12227318E+00
   0.30650   0.13591003E+00
   0.30750   0.15078676E+00
   0.30850   0.16693787E+00
   0.30950   0.18438418E+00
   0.31050   0.20313056E+00
   0.31150   0.22316413E+00
   0.31250   0.24445264E+00
   0.31350   0.26694340E+00
   0.31450   0.29056257E+00
   0.31550   0.31521505E+00
   0.31650   0.34078515E+00
   0.31750   0.36713749E+00
   0.31850   0.39411876E+00
   0.31950   0.42155981E+00
   0.32050   0.44927812E+00
   0.32150   0.47708052E+00
   0.32250   0.50476605E+00
   0.32350   0.53212845E+00
   0.32450   0.55895895E+00
   0.32550   0.58504772E+00
   0.32650   0.61018544E+00
   0.32750   0.63416320E+00
   0.32850   0.65677148E+00
   0.32950   0.67779762E+00
   0.33050   0.69702023E+00
   0.33150   0.71420163E+00
   0.33250   0.72907501E+00
   0.33350   0.74132645E+00
   0.33450   0.75056732E+00
   0.33550   0.75629354E+00
   0.33650   0.75782466E+00
   0.33750   0.75421184E+00
   0.33850   0.74409926E+00
   0.33950   0.72551936E+00
   0.34050   0.69560891E+00
   0.34150   0.65028226E+00
   0.34250   0.58410889E+00
   0.34350   0.49129543E+00
   0.34450   0.37017733E+00
   0.34550   0.23425932E+00
   0.34650   0.12123325E+00
   0.34750   0.67089222E-01
   0.34850   0.70775963E-01
   0.34950   0.12084904E+00
   0.35050   0.20143071E+00
   0.35150   0.28813607E+00
   0.35250   0.36448511E+00
   0.35350   0.42520767E+00
   0.35450   0.47094670E+00
   0.35550   0.50418890E+00
   0.35650   0.52751827E+00
   0.35750   0.54308504E+00
   0.35850   0.55253023E+00
   0.35950   0.55703127E+00
   0.36050   0.55733675E+00
   0.36150   0.55374390E+00
   0.36250   0.54672557E+00
   0.36350   0.54140455E+00
   0.36450   0.54149753E+00
   0.36550   0.54554945E+00
   0.36650   0.55294597E+00
   0.36750   0.56375355E+00
   0.36850   0.57832086E+00
   0.36950   0.59714109E+00
   0.37050   0.62078589E+00
   0.37150   0.64984143E+00
   0.37250   0.68480438E+00
   0.37350   0.72588611E+00
   0.37450   0.77264529E+00
   0.37550   0.82329822E+00
   0.37650   0.87340379E+00
   0.37750   0.91317904E+00
   0.37850   0.92138165E+00
   0.37950   0.85098541E+00
   0.38050   0.61427963E+00
   0.38150   0.22863679E+00
   0.38250   0.13223517E+00
   0.38350   0.34146243E+00
   0.38450   0.50449938E+00
   0.38550   0.52257586E+00
   0.38650   0.40229613E+00
   0.38750   0.24230593E+00
   0.38850   0.13549699E+00
   0.38950   0.84975071E-01
   0.39050   0.65563917E-01
   0.39150   0.61106700E-01
   0.39250   0.64616807E-01
   0.39350   0.73754847E-01
   0.39450   0.88640787E-01
   0.39550   0.11186216E+00
   0.39650   0.15198487E+00
   0.39750   0.24438515E+00
   0.39850   0.62500185E+00
   0.39950   0.27812979E+00
   0.40050   0.19968431E+00
   0.40150   0.29431766E+00
   0.40250   0.42285234E+00
   0.40350   0.36691201E+00
   0.40450   0.47665453E+00
   0.40550   0.38633958E+00
   0.40650   0.23817682E+00
   0.40750   0.19255437E+00
   0.40850   0.20320745E+00
   0.40950   0.22363675E+00
   0.41050   0.24035954E+00
   0.41150   0.25492558E+00
   0.41250   0.26565275E+00
   0.41350   0.27055484E+00
   0.41450   0.27084613E+00
   0.41550   0.27197722E+00
   0.41650   0.27193278E+00
   0.41750   0.26632181E+00
   0.41850   0.25566778E+00
   0.41950   0.24396749E+00
   0.42050   0.23410688E+00
   0.42150   0.22592834E+00
   0.42250   0.21783976E+00
   0.42350   0.20925033E+00
   0.42450   0.20127088E+00
   0.42550   0.19570483E+00
   0.42650   0.19383417E+00
   0.42750   0.19598854E+00
   0.42850   0.20183039E+00
   0.42950   0.21084534E+00
   0.43050   0.22266573E+00
   0.43150   0.23713465E+00
   0.43250   0.25420037E+00
   0.43350   0.27377573E+00
   0.43450   0.29564571E+00
   0.43550   0.31943822E+00
   0.43650   0.34464148E+00
   0.43750   0.37065542E+00
   0.43850   0.39686796E+00
   0.43950   0.42273840E+00
   0.44050   0.44785890E+00
   0.44150   0.47197175E+00
   0.44250   0.49494317E+00
   0.44350   0.51671678E+00
   0.44450   0.53727347E+00
   0.44550   0.55661380E+00
   0.44650   0.57475919E+00
   0.44750   0.59175831E+00
   0.44850   0.60768563E+00
   0.44950   0.62262517E+00
   0.45050   0.63664711E+00
   0.45150   0.64978659E+00
   0.45250   0.66203368E+00
   0.45350   0.67333353E+00
   0.45450   0.68358934E+00
   0.45550   0.69266003E+00
   0.45650   0.70034951E+00
   0.45750   0.70639378E+00
   0.45850   0.71045756E+00
   0.45950   0.71215111E+00
   0.46050   0.71107030E+00
   0.46150   0.70685101E+00
   0.46250   0.69922340E+00
   0.46350   0.68804628E+00
   0.46450   0.67331439E+00
   0.46550   0.65514046E+00
   0.46650   0.63372624E+00
   0.46750   0.60934061E+00
   0.46850   0.58231515E+00
   0.46950   0.55305606E+00
   0.47050   0.52206165E+00
   0.47150   0.48992860E+00
   0.47250   0.45733780E+00
   0.47350   0.42501917E+00
   0.47450   0.39370698E+00
   0.47550   0.36409941E+00
   0.47650   0.33683178E+00
   0.47750   0.31246313E+00
   0.47850   0.29146957E+00
   0.47950   0.27423552E+00
   0.48050   0.26103994E+00
   0.48150   0.25204355E+00
   0.48250   0.24728966E+00
   0.48350   0.24673475E+00
   0.48450   0.25032872E+00
   0.48550   0.25819480E+00
   0.48650   0.27107981E+00
   0.48750   0.29167458E+00
   0.48850   0.32866994E+00
   0.48950   0.40650338E+00
   0.49050   0.56283015E+00
   0.49150   0.73906511E+00
   0.49250   0.74167687E+00
   0.49350   0.60937476E+00
   0.49450   0.49237221E+00
   0.49550   0.42508015E+00
   0.49650   0.39319962E+00
   0.49750   0.38314313E+00
   0.49850   0.38952368E+00
   0.49950   0.40524581E+00
   0.50050   0.42214203E+00
   0.50150   0.43877462E+00
   0.50250   0.45488989E+00
   0.50350   0.47029686E+00
   0.50450   0.48483416E+00
   0.50550   0.49837908E+00
   0.50650   0.51084763E+00
   0.50750   0.52219194E+00
   0.50850   0.53239787E+00
   0.50950   0.54148543E+00
   0.51050   0.54951215E+00
   0.51150   0.55657989E+00
   0.51250   0.56284624E+00
   0.51350   0.56854570E+00
   0.51450   0.57402933E+00
   0.51550   0.57984656E+00
   0.51650   0.58692354E+00
   0.51750   0.59696895E+00
   0.51850   0.61336488E+00
   0.51950   0.64204860E+00
   0.52050   0.67861050E+00
   0.52150   0.66061795E+00
   0.52250   0.59545416E+00
   0.52350   0.55844700E+00
   0.52450   0.54369986E+00
   0.52550   0.53687847E+00
   0.52650   0.53287798E+00
   0.52750   0.53000700E+00
   0.52850   0.52767402E+00
   0.52950   0.52567458E+00
   0.53050   0.52395612E+00
   0.53150   0.52253687E+00
   0.53250   0.52149111E+00
   0.53350   0.52095085E+00
   0.53450   0.52086687E+00
   0.53550   0.52112985E+00
   0.53650   0.52174360E+00
   0.53750   0.52273208E+00
   0.53850   0.52412134E+00
   0.53950   0.52593875E+00
   0.54050   0.52821249E+00
   0.54150   0.53097117E+00
   0.54250   0.53424251E+00
   0.54350   0.53805107E+00
   0.54450   0.54241091E+00
   0.54550   0.54730117E+00
   0.54650   0.55256921E+00
   0.54750   0.55737311E+00
   0.54850   0.55507457E+00
   0.54950   0.46862146E+00
   0.55050   0.53276277E+00
   0.55150   0.57311094E+00
   0.55250   0.59171891E+00
   0.55350   0.60726118E+00
   0.55450   0.62279791E+00
   0.55550   0.63642055E+00
   0.55650   0.65777993E+00
   0.55750   0.69290429E+00
   0.55850   0.71578628E+00
   0.55950   0.63588560E+00
   0.56050   0.51557297E+00
   0.56150   0.59486938E+00
   0.56250   0.47873056E+00
   0.56350   0.35129821E+00
   0.56450   0.40781313E+00
   0.56550   0.47822714E+00
   0.56650   0.49168032E+00
   0.56750   0.51689190E+00
   0.56850   0.53245187E+00
   0.56950   0.55379343E+00
   0.57050   0.58793670E+00
   0.57150   0.61261237E+00
   0.57250   0.62810963E+00
   0.57350   0.64626431E+00
   0.57450   0.65849704E+00
   0.57550   0.66334641E+00
   0.57650   0.66794556E+00
   0.57750   0.67572236E+00
   0.57850   0.68749464E+00
   0.57950   0.70266455E+00
   0.58050   0.72050440E+00
   0.58150   0.74047762E+00
   0.58250   0.76180911E+00
   0.58350   0.78358901E+00
   0.58450   0.80520284E+00
   0.58550   0.82627219E+00
   0.58650   0.84627891E+00
   0.58750   0.86459136E+00
   0.58850   0.88089454E+00
   0.58950   0.89547372E+00
   0.59050   0.90888226E+00
   0.59150   0.92135864E+00
   0.59250   0.93271345E+00
   0.59350   0.94270456E+00
   0.59450   0.95145345E+00
   0.59550   0.95956022E+00
   0.59650   0.96781474E+00
   0.59750   0.97672904E+00
   0.59850   0.98631352E+00
   0.59950   0.99624765E+00
   0.60050   0.10062184E+01
   0.60150   0.10161557E+01
   0.60250   0.10262611E+01
   0.60350   0.10368557E+01
   0.60450   0.10481540E+01
   0.60550   0.10601176E+01
   0.60650   0.10724807E+01
   0.60750   0.10849051E+01
   0.60850   0.10971459E+01
   0.60950   0.11091433E+01
   0.61050   0.11210237E+01
   0.61150   0.11330262E+01
   0.61250   0.11453902E+01
   0.61350   0.11582505E+01
   0.61450   0.11715945E+01
   0.61550   0.11852988E+01
   0.61650   0.11992240E+01
   0.61750   0.12133131E+01
   0.61850   0.12276469E+01
   0.61950   0.12427958E+01
   0.62050   0.12600100E+01
   0.62150   0.12816565E+01
   0.62250   0.13118174E+01
   0.62350   0.13446895E+01
   0.62450   0.13723400E+01
   0.62550   0.13960526E+01
   0.62650   0.14172704E+01
   0.62750   0.14367648E+01
   0.62850   0.14549867E+01
   0.62950   0.14722356E+01
   0.63050   0.14887247E+01
   0.63150   0.15046037E+01
   0.63250   0.15199645E+01
   0.63350   0.15348479E+01
   0.63450   0.15492537E+01
   0.63550   0.15631554E+01
   0.63650   0.15765156E+01
   0.63750   0.15892990E+01
   0.63850   0.16014813E+01
   0.63950   0.16130518E+01
   0.64050   0.16240124E+01
   0.64150   0.16343739E+01
   0.64250   0.16441522E+01
   0.64350   0.16533637E+01
   0.64450   0.16620240E+01
   0.64550   0.16701473E+01
   0.64650   0.16777465E+01
   0.64750   0.16848350E+01
   0.64850   0.16914275E+01
   0.64950   0.16975415E+01
   0.65050   0.17031971E+01
   0.65150   0.17084167E+01
   0.65250   0.17132244E+01
   0.65350   0.17176447E+01
   0.65450   0.17217017E+01
   0.65550   0.17254181E+01
   0.65650   0.17288140E+01
   0.65750   0.17319061E+01
   0.65850   0.17347056E+01
   0.65950   0.17372156E+01
   0.66050   0.17394255E+01
   0.66150   0.17412996E+01
   0.66250   0.17427520E+01
   0.66350   0.17435805E+01
   0.66450   0.17432442E+01
   0.66550   0.17396932E+01
   0.66650   0.17179145E+01
   0.66750   0.16302313E+01
   0.66850   0.17659532E+01
   0.66950   0.17727603E+01
   0.67050   0.17704638E+01
   0.67150   0.17687645E+01
   0.67250   0.17660955E+01
   0.67350   0.17583429E+01
   0.67450   0.17322747E+01
   0.67550   0.16996850E+01
   0.67650   0.16606060E+01
   0.67750   0.15235553E+01
   0.67850   0.14928558E+01
   0.67950   0.16559957E+01
   0.68050   0.15889277E+01
   0.68150   0.15361679E+01
   0.68250   0.16240851E+01
   0.68350   0.16102587E+01
   0.68450   0.16259308E+01
   0.68550   0.16173337E+01
   0.68650   0.15920354E+01
   0.68750   0.15735422E+01
   0.68850   0.15795779E+01
   0.68950   0.15926408E+01
   0.69050   0.15983732E+01
   0.69150   0.15981696E+01
   0.69250   0.16016126E+01
   0.69350   0.16130879E+01
   0.69450   0.16304313E+01
   0.69550   0.16501232E+01
   0.69650   0.16699743E+01
   0.69750   0.16893778E+01
   0.69850   0.17091887E+01
   0.69950   0.17306032E+01
   0.70050   0.17535915E+01
   0.70150   0.17769868E+01
   0.70250   0.17994722E+01
   0.70350   0.18201789E+01
   0.70450   0.18388461E+01
   0.70550   0.18556589E+01
   0.70650   0.18707850E+01
   0.70750   0.18842611E+01
   0.70850   0.18961360E+01
   0.70950   0.19064981E+01
   0.71050   0.19154960E+01
   0.71150   0.19233109E+01
   0.71250   0.19301202E+01
   0.71350   0.19360985E+01
   0.71450   0.19414545E+01
   0.71550   0.19464674E+01
   0.71650   0.19514781E+01
   0.71750   0.19568316E+01
   0.71850   0.19627895E+01
   0.71950   0.19694568E+01
   0.72050   0.19767648E+01
   0.72150   0.19845257E+01
   0.72250   0.19925299E+01
   0.72350   0.20006356E+01
   0.72450   0.20088146E+01
   0.72550   0.20171471E+01
   0.72650   0.20257800E+01
   0.72750   0.20348814E+01
   0.72850   0.20446196E+01
   0.72950   0.20552106E+01
   0.73050   0.20671439E+01
   0.73150   0.20819628E+01
   0.73250   0.21032813E+01
   0.73350   0.21274779E+01
   0.73450   0.21477871E+01
   0.73550   0.21645734E+01
   0.73650   0.21788349E+01
   0.73750   0.21912134E+01
   0.73850   0.22021294E+01
   0.73950   0.22118702E+01
   0.74050   0.22206359E+01
   0.74150   0.22285650E+01
   0.74250   0.22357590E+01
   0.74350   0.22423010E+01
   0.74450   0.22482719E+01
   0.74550   0.22537599E+01
   0.74650   0.22588651E+01
   0.74750   0.22636957E+01
   0.74850   0.22683616E+01
   0.74950   0.22729640E+01
   0.75050   0.22775872E+01
   0.75150   0.22822919E+01
   0.75250   0.22871132E+01
   0.75350   0.22920618E+01
   0.75450   0.22971299E+01
   0.75550   0.23022933E+01
   0.75650   0.23075137E+01
   0.75750   0.23127317E+01
   0.75850   0.23178434E+01
   0.75950   0.23226392E+01
   0.76050   0.23266096E+01
   0.76150   0.23281746E+01
   0.76250   0.23202159E+01
   0.76350   0.22878122E+01
   0.76450   0.23309746E+01
   0.76550   0.22253029E+01
   0.76650   0.23489399E+01
   0.76750   0.23743820E+01
   0.76850   0.23818722E+01
   0.76950   0.23861299E+01
   0.77050   0.23876309E+01
   0.77150   0.23842890E+01
   0.77250   0.23700347E+01
   0.77350   0.23285356E+01
   0.77450   0.22279761E+01
   0.77550   0.21937437E+01
   0.77650   0.22277844E+01
   0.77750   0.22125235E+01
   0.77850   0.22105441E+01
   0.77950   0.22315264E+01
   0.78050   0.22623396E+01
   0.78150   0.22971771E+01
   0.78250   0.23131356E+01
   0.78350   0.23238685E+01
   0.78450   0.23388722E+01
   0.78550   0.23501928E+01
   0.78650   0.23617668E+01
   0.78750   0.23833656E+01
   0.78850   0.24148207E+01
   0.78950   0.24453213E+01
   0.79050   0.24686131E+01
   0.79150   0.24845605E+01
   0.79250   0.24959142E+01
   0.79350   0.25059831E+01
   0.79450   0.25154138E+01
   0.79550   0.25232735E+01
   0.79650   0.25295713E+01
   0.79750   0.25356629E+01
   0.79850   0.25432460E+01
   0.79950   0.25521934E+01
   0.80050   0.25598605E+01
   0.80150   0.25641451E+01
   0.80250   0.25650868E+01
   0.80350   0.25637267E+01
   0.80450   0.25614035E+01
   0.80550   0.25596449E+01
   0.80650   0.25598638E+01
   0.80750   0.25626774E+01
   0.80850   0.25673311E+01
   0.80950   0.25721321E+01
   0.81050   0.25756884E+01
   0.81150   0.25775495E+01
   0.81250   0.25779610E+01
   0.81350   0.25774412E+01
   0.81450   0.25765076E+01
   0.81550   0.25755243E+01
   0.81650   0.25746448E+01
   0.81750   0.25738509E+01
   0.81850   0.25730548E+01
   0.81950   0.25722003E+01
   0.82050   0.25713365E+01
   0.82150   0.25706635E+01
   0.82250   0.25705431E+01
   0.82350   0.25715182E+01
   0.82450   0.25745323E+01
   0.82550   0.25819871E+01
   0.82650   0.25960431E+01
   0.82750   0.26105375E+01
   0.82850   0.26229107E+01
   0.82950   0.26335373E+01
   0.83050   0.26428173E+01
   0.83150   0.26510367E+01
   0.83250   0.26584127E+01
   0.83350   0.26651049E+01
   0.83450   0.26712117E+01
   0.83550   0.26767557E+01
   0.83650   0.26816540E+01
   0.83750   0.26856077E+01
   0.83850   0.26876352E+01
   0.83950   0.26833172E+01
   0.84050   0.26349607E+01
   0.84150   0.26735275E+01
   0.84250   0.27123168E+01
   0.84350   0.27203279E+01
   0.84450   0.27255642E+01
   0.84550   0.27302005E+01
   0.84650   0.27343805E+01
   0.84750   0.27377663E+01
   0.84850   0.27395382E+01
   0.84950   0.27387364E+01
   0.85050   0.27334328E+01
   0.85150   0.27196319E+01
   0.85250   0.26973352E+01
   0.85350   0.26965735E+01
   0.85450   0.27254500E+01
   0.85550   0.27465966E+01
   0.85650   0.27529857E+01
   0.85750   0.27482305E+01
   0.85850   0.27451203E+01
   0.85950   0.27569563E+01
   0.86050   0.27695167E+01
   0.86150   0.27795475E+01
   0.86250   0.27872925E+01
   0.86350   0.27918758E+01
   0.86450   0.27896669E+01
   0.86550   0.27904716E+01
   0.86650   0.28030994E+01
   0.86750   0.28148696E+01
   0.86850   0.28346200E+01
   0.86950   0.28476706E+01
   0.87050   0.28356271E+01
   0.87150   0.28212342E+01
   0.87250   0.28143339E+01
   0.87350   0.28141270E+01
   0.87450   0.28145666E+01
   0.87550   0.28059013E+01
   0.87650   0.27898574E+01
   0.87750   0.27729230E+01
   0.87850   0.27574806E+01
   0.87950   0.27459745E+01
   0.88050   0.27400792E+01
   0.88150   0.27379830E+01
   0.88250   0.27361765E+01
   0.88350   0.27313581E+01
   0.88450   0.27224054E+01
   0.88550   0.27122841E+01
   0.88650   0.27042444E+01
   0.88750   0.26991847E+01
   0.88850   0.26970403E+01
   0.88950   0.26973951E+01
   0.89050   0.26993670E+01
   0.89150   0.27015555E+01
   0.89250   0.27026780E+01
   0.89350   0.27021737E+01
   0.89450   0.26998878E+01
   0.89550   0.26957097E+01
   0.89650   0.26901577E+01
   0.89750   0.26847310E+01
   0.89850   0.26810505E+01
   0.89950   0.26803408E+01
   0.90050   0.26843984E+01
   0.90150   0.26945910E+01
   0.90250   0.27060974E+01
   0.90350   0.27157865E+01
   0.90450   0.27225380E+01
   0.90550   0.27250252E+01
   0.90650   0.27189913E+01
   0.90750   0.26918502E+01
   0.90850   0.26935947E+01
   0.90950   0.26963735E+01
   0.91050   0.26913397E+01
   0.91150   0.26832001E+01
   0.91250   0.26735778E+01
   0.91350   0.26631651E+01
   0.91450   0.26524067E+01
   0.91550   0.26417108E+01
   0.91650   0.26314979E+01
   0.91750   0.26221807E+01
   0.91850   0.26140592E+01
   0.91950   0.26069355E+01
   0.92050   0.25986521E+01
   0.92150   0.25855980E+01
   0.92250   0.25751905E+01
   0.92350   0.25651836E+01
   0.92450   0.25511229E+01
   0.92550   0.25348177E+01
   0.92650   0.25190420E+01
   0.92750   0.25057988E+01
   0.92850   0.24947965E+01
   0.92950   0.24819376E+01
   0.93050   0.24677269E+01
   0.93150   0.24538157E+01
   0.93250   0.24384847E+01
   0.93350   0.24216542E+01
   0.93450   0.24039252E+01
   0.93550   0.23857033E+01
   0.93650   0.23675375E+01
   0.93750   0.23504827E+01
   0.93850   0.23356543E+01
   0.93950   0.23227351E+01
   0.94050   0.23095326E+01
   0.94150   0.22936857E+01
   0.94250   0.22730575E+01
   0.94350   0.22452023E+01
   0.94450   0.22182968E+01
   0.94550   0.22061121E+01
   0.94650   0.21943464E+01
   0.94750   0.21761897E+01
   0.94850   0.21532784E+01
   0.94950   0.21282818E+01
   0.95050   0.21035724E+01
   0.95150   0.20803194E+01
   0.95250   0.20582614E+01
   0.95350   0.20366535E+01
   0.95450   0.20152783E+01
   0.95550   0.19950446E+01
   0.95650   0.19772240E+01
   0.95750   0.19618293E+01
   0.95850   0.19489298E+01
   0.95950   0.19384530E+01
   0.96050   0.19298730E+01
   0.96150   0.19222107E+01
   0.96250   0.19153247E+01
   0.96350   0.19178128E+01
   0.96450   0.19230839E+01
   0.96550   0.19189658E+01
   0.96650   0.19102631E+01
   0.96750   0.18979338E+01
   0.96850   0.18818254E+01
   0.96950   0.18617303E+01
   0.97050   0.18375086E+01
   0.97150   0.18091717E+01
   0.97250   0.17767965E+01
   0.97350   0.17400094E+01
   0.97450   0.16979684E+01
   0.97550   0.16508495E+01
   0.97650   0.16004101E+01
   0.97750   0.15471942E+01
   0.97850   0.14914432E+01
   0.97950   0.14334266E+01
   0.98050   0.13734418E+01
   0.98150   0.13120320E+01
   0.98250   0.12499826E+01
   0.98350   0.11880639E+01
   0.98450   0.11268462E+01
   0.98550   0.10668505E+01
   0.98650   0.10089185E+01
   0.98750   0.95366734E+00
   0.98850   0.89839941E+00
   0.98950   0.84300268E+00
   0.99050   0.79061562E+00
   0.99150   0.74113303E+00
   0.99250   0.69481790E+00
   0.99350   0.65332264E+00
   0.99450   0.61829543E+00
   0.99550   0.59072453E+00
   0.99650   0.56918401E+00
   0.99750   0.54941040E+00
   0.99850   0.52621073E+00
   0.99950   0.49740756E+00
