# Transmission, k-averaged
# Date: 2021-05-13
#   E [eV]           T [G0]
   0.00050   0.83878264E-02
   0.00150   0.12081776E-01
   0.00250   0.91788229E-02
   0.00350   0.12310196E-01
   0.00450   0.10988215E+00
   0.00550   0.70821568E-02
   0.00650   0.12568755E+00
   0.00750   0.72523905E-02
   0.00850   0.11277143E-01
   0.00950   0.53715900E-01
   0.01050   0.60909931E-02
   0.01150   0.74598105E-02
   0.01250   0.87805696E-01
   0.01350   0.12146937E-01
   0.01450   0.49610324E-02
   0.01550   0.67946981E-02
   0.01650   0.40413518E-01
   0.01750   0.25908399E-01
   0.01850   0.60821362E-02
   0.01950   0.45285085E-02
   0.02050   0.72844988E-02
   0.02150   0.36747221E-01
   0.02250   0.39683569E-01
   0.02350   0.77201705E-02
   0.02450   0.45096599E-02
   0.02550   0.48592971E-02
   0.02650   0.97444179E-02
   0.02750   0.60840160E-01
   0.02850   0.36929827E-01
   0.02950   0.83790869E-02
   0.03050   0.48504742E-02
   0.03150   0.47290134E-02
   0.03250   0.74715544E-02
   0.03350   0.24615847E-01
   0.03450   0.16800548E+00
   0.03550   0.20014036E-01
   0.03650   0.78221560E-02
   0.03750   0.58131455E-02
   0.03850   0.67442381E-02
   0.03950   0.12628899E-01
   0.04050   0.52248813E-01
   0.04150   0.17850445E+00
   0.04250   0.33953343E-01
   0.04350   0.20333219E-01
   0.04450   0.27211960E-01
   0.04550   0.70347212E-01
   0.04650   0.19607618E+00
   0.04750   0.45241722E+00
   0.04850   0.60540867E+00
   0.04950   0.49549592E+00
   0.05050   0.39214882E+00
   0.05150   0.35157228E+00
   0.05250   0.35893151E+00
   0.05350   0.40624887E+00
   0.05450   0.48884618E+00
   0.05550   0.58842421E+00
   0.05650   0.66198790E+00
   0.05750   0.67457724E+00
   0.05850   0.64136153E+00
   0.05950   0.60047954E+00
   0.06050   0.57501900E+00
   0.06150   0.57137829E+00
   0.06250   0.58796954E+00
   0.06350   0.61924243E+00
   0.06450   0.65639031E+00
   0.06550   0.68865675E+00
   0.06650   0.70731729E+00
   0.06750   0.71009749E+00
   0.06850   0.70156080E+00
   0.06950   0.68923891E+00
   0.07050   0.67957747E+00
   0.07150   0.67622298E+00
   0.07250   0.68010837E+00
   0.07350   0.69009691E+00
   0.07450   0.70363986E+00
   0.07550   0.71747768E+00
   0.07650   0.72850692E+00
   0.07750   0.73468697E+00
   0.07850   0.73560673E+00
   0.07950   0.73240727E+00
   0.08050   0.72714651E+00
   0.08150   0.72199851E+00
   0.08250   0.71864605E+00
   0.08350   0.71798450E+00
   0.08450   0.72007525E+00
   0.08550   0.72425020E+00
   0.08650   0.72931075E+00
   0.08750   0.73380429E+00
   0.08850   0.73636127E+00
   0.08950   0.73605549E+00
   0.09050   0.73282230E+00
   0.09150   0.72869390E+00
   0.09250   0.73071206E+00
   0.09350   0.73922044E+00
   0.09450   0.74884295E+00
   0.09550   0.75863343E+00
   0.09650   0.76838630E+00
   0.09750   0.77777302E+00
   0.09850   0.78638810E+00
   0.09950   0.79387379E+00
   0.10050   0.80001563E+00
   0.10150   0.80478835E+00
   0.10250   0.80834889E+00
   0.10350   0.81098920E+00
   0.10450   0.81306666E+00
   0.10550   0.81493276E+00
   0.10650   0.81687510E+00
   0.10750   0.81908107E+00
   0.10850   0.82162499E+00
   0.10950   0.82447577E+00
   0.11050   0.82751983E+00
   0.11150   0.83059478E+00
   0.11250   0.83352560E+00
   0.11350   0.83615869E+00
   0.11450   0.83838874E+00
   0.11550   0.84017301E+00
   0.11650   0.84153366E+00
   0.11750   0.84254789E+00
   0.11850   0.84332955E+00
   0.11950   0.84400684E+00
   0.12050   0.84469998E+00
   0.12150   0.84550345E+00
   0.12250   0.84647375E+00
   0.12350   0.84762526E+00
   0.12450   0.84893245E+00
   0.12550   0.85033804E+00
   0.12650   0.85176539E+00
   0.12750   0.85313255E+00
   0.12850   0.85436594E+00
   0.12950   0.85541177E+00
   0.13050   0.85624337E+00
   0.13150   0.85686356E+00
   0.13250   0.85730243E+00
   0.13350   0.85761100E+00
   0.13450   0.85785192E+00
   0.13550   0.85808945E+00
   0.13650   0.85837990E+00
   0.13750   0.85876405E+00
   0.13850   0.85926223E+00
   0.13950   0.85987288E+00
   0.14050   0.86057425E+00
   0.14150   0.86132884E+00
   0.14250   0.86208981E+00
   0.14350   0.86280841E+00
   0.14450   0.86344117E+00
   0.14550   0.86395627E+00
   0.14650   0.86433774E+00
   0.14750   0.86458701E+00
   0.14850   0.86472231E+00
   0.14950   0.86477524E+00
   0.15050   0.86478579E+00
   0.15150   0.86479640E+00
   0.15250   0.86484575E+00
   0.15350   0.86496377E+00
   0.15450   0.86516726E+00
   0.15550   0.86545825E+00
   0.15650   0.86582410E+00
   0.15750   0.86623943E+00
   0.15850   0.86666989E+00
   0.15950   0.86707717E+00
   0.16050   0.86742449E+00
   0.16150   0.86768174E+00
   0.16250   0.86782974E+00
   0.16350   0.86786312E+00
   0.16450   0.86779106E+00
   0.16550   0.86763608E+00
   0.16650   0.86743146E+00
   0.16750   0.86721629E+00
   0.16850   0.86703110E+00
   0.16950   0.86691254E+00
   0.17050   0.86689001E+00
   0.17150   0.86698490E+00
   0.17250   0.86721647E+00
   0.17350   0.86762595E+00
   0.17450   0.86836755E+00
   0.17550   0.86995965E+00
   0.17650   0.87235653E+00
   0.17750   0.87426287E+00
   0.17850   0.87558657E+00
   0.17950   0.87652010E+00
   0.18050   0.87718982E+00
   0.18150   0.87767470E+00
   0.18250   0.87802720E+00
   0.18350   0.87828374E+00
   0.18450   0.87846965E+00
   0.18550   0.87860233E+00
   0.18650   0.87869245E+00
   0.18750   0.87874544E+00
   0.18850   0.87876248E+00
   0.18950   0.87874138E+00
   0.19050   0.87867761E+00
   0.19150   0.87856525E+00
   0.19250   0.87839782E+00
   0.19350   0.87816924E+00
   0.19450   0.87787449E+00
   0.19550   0.87751013E+00
   0.19650   0.87707466E+00
   0.19750   0.87656868E+00
   0.19850   0.87599456E+00
   0.19950   0.87535644E+00
   0.20050   0.87465936E+00
   0.20150   0.87390900E+00
   0.20250   0.87311059E+00
   0.20350   0.87226838E+00
   0.20450   0.87138468E+00
   0.20550   0.87045956E+00
   0.20650   0.86949003E+00
   0.20750   0.86846977E+00
   0.20850   0.86738873E+00
   0.20950   0.86623293E+00
   0.21050   0.86498421E+00
   0.21150   0.86361951E+00
   0.21250   0.86210883E+00
   0.21350   0.86041206E+00
   0.21450   0.85846919E+00
   0.21550   0.85617763E+00
   0.21650   0.85333496E+00
   0.21750   0.84968007E+00
   0.21850   0.84603971E+00
   0.21950   0.84326893E+00
   0.22050   0.84107739E+00
   0.22150   0.83924806E+00
   0.22250   0.83767867E+00
   0.22350   0.83631390E+00
   0.22450   0.83511937E+00
   0.22550   0.83407062E+00
   0.22650   0.83314848E+00
   0.22750   0.83233649E+00
   0.22850   0.83161944E+00
   0.22950   0.83098221E+00
   0.23050   0.83040845E+00
   0.23150   0.82987928E+00
   0.23250   0.82937217E+00
   0.23350   0.82887000E+00
   0.23450   0.82847333E+00
   0.23550   0.82858354E+00
   0.23650   0.82907784E+00
   0.23750   0.82970607E+00
   0.23850   0.83041054E+00
   0.23950   0.83117628E+00
   0.24050   0.83199453E+00
   0.24150   0.83285636E+00
   0.24250   0.83375192E+00
   0.24350   0.83467031E+00
   0.24450   0.83560002E+00
   0.24550   0.83652937E+00
   0.24650   0.83744657E+00
   0.24750   0.83834028E+00
   0.24850   0.83919942E+00
   0.24950   0.84001338E+00
   0.25050   0.84077197E+00
   0.25150   0.84146559E+00
   0.25250   0.84208477E+00
   0.25350   0.84262037E+00
   0.25450   0.84306365E+00
   0.25550   0.84340578E+00
   0.25650   0.84363824E+00
   0.25750   0.84375250E+00
   0.25850   0.84374028E+00
   0.25950   0.84359342E+00
   0.26050   0.84330386E+00
   0.26150   0.84286398E+00
   0.26250   0.84226626E+00
   0.26350   0.84150344E+00
   0.26450   0.84056842E+00
   0.26550   0.83945423E+00
   0.26650   0.83815384E+00
   0.26750   0.83665985E+00
   0.26850   0.83496433E+00
   0.26950   0.83305871E+00
   0.27050   0.83093303E+00
   0.27150   0.82857603E+00
   0.27250   0.82597452E+00
   0.27350   0.82311320E+00
   0.27450   0.81997430E+00
   0.27550   0.81653738E+00
   0.27650   0.81277913E+00
   0.27750   0.80867320E+00
   0.27850   0.80419028E+00
   0.27950   0.79929805E+00
   0.28050   0.79396141E+00
   0.28150   0.78814268E+00
   0.28250   0.78180194E+00
   0.28350   0.77489740E+00
   0.28450   0.76738614E+00
   0.28550   0.75922424E+00
   0.28650   0.75036788E+00
   0.28750   0.74077386E+00
   0.28850   0.73040020E+00
   0.28950   0.71920747E+00
   0.29050   0.70715910E+00
   0.29150   0.69422281E+00
   0.29250   0.68037134E+00
   0.29350   0.66558391E+00
   0.29450   0.64984727E+00
   0.29550   0.63315755E+00
   0.29650   0.61552358E+00
   0.29750   0.59697521E+00
   0.29850   0.57759643E+00
   0.29950   0.55751765E+00
   0.30050   0.53663856E+00
   0.30150   0.51492918E+00
   0.30250   0.49248302E+00
   0.30350   0.46940991E+00
   0.30450   0.44582698E+00
   0.30550   0.42185941E+00
   0.30650   0.39764053E+00
   0.30750   0.37331060E+00
   0.30850   0.34901512E+00
   0.30950   0.32490227E+00
   0.31050   0.30112037E+00
   0.31150   0.27781489E+00
   0.31250   0.25512540E+00
   0.31350   0.23318271E+00
   0.31450   0.21210615E+00
   0.31550   0.19200106E+00
   0.31650   0.17295685E+00
   0.31750   0.15504551E+00
   0.31850   0.13832061E+00
   0.31950   0.12281707E+00
   0.32050   0.10855129E+00
   0.32150   0.95522083E-01
   0.32250   0.83711870E-01
   0.32350   0.73088534E-01
   0.32450   0.63607432E-01
   0.32550   0.55213731E-01
   0.32650   0.47844913E-01
   0.32750   0.41433327E-01
   0.32850   0.35908788E-01
   0.32950   0.31201227E-01
   0.33050   0.27243359E-01
   0.33150   0.23973588E-01
   0.33250   0.21339342E-01
   0.33350   0.19301338E-01
   0.33450   0.17839666E-01
   0.33550   0.16963355E-01
   0.33650   0.16726578E-01
   0.33750   0.17257845E-01
   0.33850   0.18815218E-01
   0.33950   0.21895330E-01
   0.34050   0.27457004E-01
   0.34150   0.37392575E-01
   0.34250   0.55522047E-01
   0.34350   0.89542806E-01
   0.34450   0.15376285E+00
   0.34550   0.26715356E+00
   0.34650   0.42581692E+00
   0.34750   0.54930365E+00
   0.34850   0.53785068E+00
   0.34950   0.42410830E+00
   0.35050   0.30274746E+00
   0.35150   0.21411835E+00
   0.35250   0.15700464E+00
   0.35350   0.12126098E+00
   0.35450   0.98778129E-01
   0.35550   0.84477693E-01
   0.35650   0.75364493E-01
   0.35750   0.69679834E-01
   0.35850   0.66380255E-01
   0.35950   0.64848699E-01
   0.36050   0.64749219E-01
   0.36150   0.65973252E-01
   0.36250   0.68400569E-01
   0.36350   0.70253417E-01
   0.36450   0.70146956E-01
   0.36550   0.68593167E-01
   0.36650   0.65858446E-01
   0.36750   0.62005389E-01
   0.36850   0.57049107E-01
   0.36950   0.51026359E-01
   0.37050   0.44040222E-01
   0.37150   0.36299501E-01
   0.37250   0.28154939E-01
   0.37350   0.20122230E-01
   0.37450   0.12866237E-01
   0.37550   0.71023838E-02
   0.37650   0.33774485E-02
   0.37750   0.18530943E-02
   0.37850   0.30438018E-02
   0.37950   0.13741180E-01
   0.38050   0.69425382E-01
   0.38150   0.23530208E+00
   0.38250   0.37952095E+00
   0.38350   0.31986040E+00
   0.38450   0.16226795E+00
   0.38550   0.40751465E-01
   0.38650   0.79374701E-01
   0.38750   0.25978854E+00
   0.38850   0.43210959E+00
   0.38950   0.53013241E+00
   0.39050   0.56766230E+00
   0.39150   0.56924224E+00
   0.39250   0.55106437E+00
   0.39350   0.52196091E+00
   0.39450   0.48627755E+00
   0.39550   0.44550148E+00
   0.39650   0.39851755E+00
   0.39750   0.33916464E+00
   0.39850   0.24793556E+00
   0.39950   0.29684761E+00
   0.40050   0.23462138E+00
   0.40150   0.16738413E+00
   0.40250   0.11703383E+00
   0.40350   0.25619018E+00
   0.40450   0.11177915E+01
   0.40550   0.12169541E+01
   0.40650   0.11492743E+01
   0.40750   0.11369116E+01
   0.40850   0.11847844E+01
   0.40950   0.12178653E+01
   0.41050   0.12204560E+01
   0.41150   0.12791569E+01
   0.41250   0.12793632E+01
   0.41350   0.12607605E+01
   0.41450   0.12713969E+01
   0.41550   0.12756577E+01
   0.41650   0.12587284E+01
   0.41750   0.12357804E+01
   0.41850   0.12159483E+01
   0.41950   0.11976954E+01
   0.42050   0.11775783E+01
   0.42150   0.11546255E+01
   0.42250   0.11297970E+01
   0.42350   0.11044437E+01
   0.42450   0.10797188E+01
   0.42550   0.10566261E+01
   0.42650   0.10360193E+01
   0.42750   0.10184283E+01
   0.42850   0.10039216E+01
   0.42950   0.99214816E+00
   0.43050   0.98253155E+00
   0.43150   0.97450221E+00
   0.43250   0.96765363E+00
   0.43350   0.96177155E+00
   0.43450   0.95675427E+00
   0.43550   0.95248842E+00
   0.43650   0.94875151E+00
   0.43750   0.94518632E+00
   0.43850   0.94134849E+00
   0.43950   0.93678933E+00
   0.44050   0.93112957E+00
   0.44150   0.92409915E+00
   0.44250   0.91554952E+00
   0.44350   0.90545529E+00
   0.44450   0.89391702E+00
   0.44550   0.88116086E+00
   0.44650   0.86752754E+00
   0.44750   0.85344046E+00
   0.44850   0.83935696E+00
   0.44950   0.82571131E+00
   0.45050   0.81286651E+00
   0.45150   0.80108470E+00
   0.45250   0.79052156E+00
   0.45350   0.78123808E+00
   0.45450   0.77322125E+00
   0.45550   0.76640522E+00
   0.45650   0.76068670E+00
   0.45750   0.75593424E+00
   0.45850   0.75199413E+00
   0.45950   0.74869597E+00
   0.46050   0.74586177E+00
   0.46150   0.74331921E+00
   0.46250   0.74091792E+00
   0.46350   0.73854560E+00
   0.46450   0.73614228E+00
   0.46550   0.73371190E+00
   0.46650   0.73133421E+00
   0.46750   0.72917777E+00
   0.46850   0.72751498E+00
   0.46950   0.72673291E+00
   0.47050   0.72733510E+00
   0.47150   0.72992635E+00
   0.47250   0.73517978E+00
   0.47350   0.74378806E+00
   0.47450   0.75640583E+00
   0.47550   0.77359229E+00
   0.47650   0.79575974E+00
   0.47750   0.82313383E+00
   0.47850   0.85572851E+00
   0.47950   0.89333850E+00
   0.48050   0.93554246E+00
   0.48150   0.98169702E+00
   0.48250   0.10308774E+01
   0.48350   0.10816914E+01
   0.48450   0.11318464E+01
   0.48550   0.11772690E+01
   0.48650   0.12104266E+01
   0.48750   0.12174426E+01
   0.48850   0.11748240E+01
   0.48950   0.10541131E+01
   0.49050   0.85720283E+00
   0.49150   0.65381384E+00
   0.49250   0.52269614E+00
   0.49350   0.51012468E+00
   0.49450   0.58579427E+00
   0.49550   0.68776631E+00
   0.49650   0.78202623E+00
   0.49750   0.85632867E+00
   0.49850   0.90463251E+00
   0.49950   0.93542582E+00
   0.50050   0.96128774E+00
   0.50150   0.98380792E+00
   0.50250   0.10032293E+01
   0.50350   0.10199221E+01
   0.50450   0.10342934E+01
   0.50550   0.10467200E+01
   0.50650   0.10575272E+01
   0.50750   0.10669866E+01
   0.50850   0.10753242E+01
   0.50950   0.10827341E+01
   0.51050   0.10893946E+01
   0.51150   0.10954856E+01
   0.51250   0.11012076E+01
   0.51350   0.11068026E+01
   0.51450   0.11125820E+01
   0.51550   0.11189660E+01
   0.51650   0.11265351E+01
   0.51750   0.11360384E+01
   0.51850   0.11478806E+01
   0.51950   0.11574887E+01
   0.52050   0.11266981E+01
   0.52150   0.10173548E+01
   0.52250   0.99449223E+00
   0.52350   0.10086567E+01
   0.52450   0.10218284E+01
   0.52550   0.10310185E+01
   0.52650   0.10373186E+01
   0.52750   0.10417510E+01
   0.52850   0.10449810E+01
   0.52950   0.10474253E+01
   0.53050   0.10493487E+01
   0.53150   0.10509285E+01
   0.53250   0.10522983E+01
   0.53350   0.10535438E+01
   0.53450   0.10545927E+01
   0.53550   0.10554595E+01
   0.53650   0.10562117E+01
   0.53750   0.10568850E+01
   0.53850   0.10574942E+01
   0.53950   0.10580418E+01
   0.54050   0.10585225E+01
   0.54150   0.10589209E+01
   0.54250   0.10592065E+01
   0.54350   0.10593202E+01
   0.54450   0.10591407E+01
   0.54550   0.10583949E+01
   0.54650   0.10563740E+01
   0.54750   0.10508841E+01
   0.54850   0.10314854E+01
   0.54950   0.93657321E+00
   0.55050   0.10521337E+01
   0.55150   0.10742636E+01
   0.55250   0.10793779E+01
   0.55350   0.10834271E+01
   0.55450   0.10884064E+01
   0.55550   0.10940871E+01
   0.55650   0.11056746E+01
   0.55750   0.11240040E+01
   0.55850   0.11307701E+01
   0.55950   0.10246903E+01
   0.56050   0.88919771E+00
   0.56150   0.98273289E+00
   0.56250   0.94279963E+00
   0.56350   0.14131777E+01
   0.56450   0.16676835E+01
   0.56550   0.21492319E+01
   0.56650   0.20757780E+01
   0.56750   0.20799773E+01
   0.56850   0.22270591E+01
   0.56950   0.22598825E+01
   0.57050   0.22856991E+01
   0.57150   0.22740586E+01
   0.57250   0.23255329E+01
   0.57350   0.23647795E+01
   0.57450   0.22998004E+01
   0.57550   0.22524991E+01
   0.57650   0.22841563E+01
   0.57750   0.23440526E+01
   0.57850   0.23470802E+01
   0.57950   0.23039813E+01
   0.58050   0.22791028E+01
   0.58150   0.22905080E+01
   0.58250   0.23159945E+01
   0.58350   0.23263795E+01
   0.58450   0.23160920E+01
   0.58550   0.23015418E+01
   0.58650   0.22962019E+01
   0.58750   0.22993047E+01
   0.58850   0.23008540E+01
   0.58950   0.22923553E+01
   0.59050   0.22741587E+01
   0.59150   0.22533727E+01
   0.59250   0.22366793E+01
   0.59350   0.22258396E+01
   0.59450   0.22177644E+01
   0.59550   0.22074718E+01
   0.59650   0.21918066E+01
   0.59750   0.21714492E+01
   0.59850   0.21499450E+01
   0.59950   0.21310964E+01
   0.60050   0.21168933E+01
   0.60150   0.21068664E+01
   0.60250   0.20986679E+01
   0.60350   0.20894420E+01
   0.60450   0.20773325E+01
   0.60550   0.20622993E+01
   0.60650   0.20458248E+01
   0.60750   0.20299032E+01
   0.60850   0.20160587E+01
   0.60950   0.20048261E+01
   0.61050   0.19957312E+01
   0.61150   0.19876472E+01
   0.61250   0.19793574E+01
   0.61350   0.19700806E+01
   0.61450   0.19597009E+01
   0.61550   0.19486148E+01
   0.61650   0.19373715E+01
   0.61750   0.19265063E+01
   0.61850   0.19170754E+01
   0.61950   0.19092315E+01
   0.62050   0.19018116E+01
   0.62150   0.18934757E+01
   0.62250   0.18815857E+01
   0.62350   0.18687814E+01
   0.62450   0.18596768E+01
   0.62550   0.18535583E+01
   0.62650   0.18495734E+01
   0.62750   0.18473096E+01
   0.62850   0.18465577E+01
   0.62950   0.18471661E+01
   0.63050   0.18489712E+01
   0.63150   0.18517761E+01
   0.63250   0.18553573E+01
   0.63350   0.18594859E+01
   0.63450   0.18639485E+01
   0.63550   0.18685583E+01
   0.63650   0.18731567E+01
   0.63750   0.18776088E+01
   0.63850   0.18818009E+01
   0.63950   0.18856409E+01
   0.64050   0.18890618E+01
   0.64150   0.18920250E+01
   0.64250   0.18945183E+01
   0.64350   0.18965508E+01
   0.64450   0.18981423E+01
   0.64550   0.18993107E+01
   0.64650   0.19000578E+01
   0.64750   0.19003592E+01
   0.64850   0.19001578E+01
   0.64950   0.18993666E+01
   0.65050   0.18978784E+01
   0.65150   0.18955853E+01
   0.65250   0.18924007E+01
   0.65350   0.18882797E+01
   0.65450   0.18832322E+01
   0.65550   0.18773241E+01
   0.65650   0.18706654E+01
   0.65750   0.18633889E+01
   0.65850   0.18556216E+01
   0.65950   0.18474557E+01
   0.66050   0.18389236E+01
   0.66150   0.18299744E+01
   0.66250   0.18204471E+01
   0.66350   0.18100061E+01
   0.66450   0.17979034E+01
   0.66550   0.17817057E+01
   0.66650   0.17460908E+01
   0.66750   0.16003155E+01
   0.66850   0.17247386E+01
   0.66950   0.17536017E+01
   0.67050   0.17414671E+01
   0.67150   0.17265161E+01
   0.67250   0.17086900E+01
   0.67350   0.16803803E+01
   0.67450   0.16173292E+01
   0.67550   0.15650662E+01
   0.67650   0.15344188E+01
   0.67750   0.13868146E+01
   0.67850   0.12830435E+01
   0.67950   0.14859922E+01
   0.68050   0.16491874E+01
   0.68150   0.20784144E+01
   0.68250   0.22409608E+01
   0.68350   0.23710423E+01
   0.68450   0.24104111E+01
   0.68550   0.24412136E+01
   0.68650   0.23841546E+01
   0.68750   0.24430304E+01
   0.68850   0.25771835E+01
   0.68950   0.27210207E+01
   0.69050   0.27535532E+01
   0.69150   0.27175720E+01
   0.69250   0.26788285E+01
   0.69350   0.26497476E+01
   0.69450   0.26391470E+01
   0.69550   0.26557713E+01
   0.69650   0.26930254E+01
   0.69750   0.27242553E+01
   0.69850   0.27253983E+01
   0.69950   0.27036624E+01
   0.70050   0.26850314E+01
   0.70150   0.26864085E+01
   0.70250   0.27079151E+01
   0.70350   0.27370498E+01
   0.70450   0.27584147E+01
   0.70550   0.27667315E+01
   0.70650   0.27669132E+01
   0.70750   0.27647841E+01
   0.70850   0.27632513E+01
   0.70950   0.27614048E+01
   0.71050   0.27568843E+01
   0.71150   0.27482553E+01
   0.71250   0.27361469E+01
   0.71350   0.27227898E+01
   0.71450   0.27106001E+01
   0.71550   0.27009201E+01
   0.71650   0.26935711E+01
   0.71750   0.26872151E+01
   0.71850   0.26801746E+01
   0.71950   0.26712883E+01
   0.72050   0.26604240E+01
   0.72150   0.26484601E+01
   0.72250   0.26368177E+01
   0.72350   0.26268330E+01
   0.72450   0.26192694E+01
   0.72550   0.26141264E+01
   0.72650   0.26107361E+01
   0.72750   0.26080546E+01
   0.72850   0.26050034E+01
   0.72950   0.26007171E+01
   0.73050   0.25945399E+01
   0.73150   0.25854654E+01
   0.73250   0.25712640E+01
   0.73350   0.25548277E+01
   0.73450   0.25409768E+01
   0.73550   0.25292423E+01
   0.73650   0.25186284E+01
   0.73750   0.25083804E+01
   0.73850   0.24979641E+01
   0.73950   0.24870625E+01
   0.74050   0.24755664E+01
   0.74150   0.24635370E+01
   0.74250   0.24511404E+01
   0.74350   0.24385726E+01
   0.74450   0.24259901E+01
   0.74550   0.24134672E+01
   0.74650   0.24009802E+01
   0.74750   0.23884213E+01
   0.74850   0.23756332E+01
   0.74950   0.23624530E+01
   0.75050   0.23487537E+01
   0.75150   0.23344765E+01
   0.75250   0.23196418E+01
   0.75350   0.23043439E+01
   0.75450   0.22887268E+01
   0.75550   0.22729490E+01
   0.75650   0.22571452E+01
   0.75750   0.22413878E+01
   0.75850   0.22256458E+01
   0.75950   0.22097144E+01
   0.76050   0.21929955E+01
   0.76150   0.21734807E+01
   0.76250   0.21405320E+01
   0.76350   0.20456994E+01
   0.76450   0.20682654E+01
   0.76550   0.18097152E+01
   0.76650   0.20358937E+01
   0.76750   0.20696926E+01
   0.76850   0.20603611E+01
   0.76950   0.20439959E+01
   0.77050   0.20238023E+01
   0.77150   0.19992737E+01
   0.77250   0.19693207E+01
   0.77350   0.19381703E+01
   0.77450   0.19585148E+01
   0.77550   0.22014616E+01
   0.77650   0.23149993E+01
   0.77750   0.22708225E+01
   0.77850   0.22153265E+01
   0.77950   0.22203872E+01
   0.78050   0.23023760E+01
   0.78150   0.24648957E+01
   0.78250   0.26735480E+01
   0.78350   0.27348521E+01
   0.78450   0.26967356E+01
   0.78550   0.26987340E+01
   0.78650   0.27641966E+01
   0.78750   0.28562999E+01
   0.78850   0.29264495E+01
   0.78950   0.29650888E+01
   0.79050   0.29931273E+01
   0.79150   0.30198619E+01
   0.79250   0.30209210E+01
   0.79350   0.29835312E+01
   0.79450   0.29434373E+01
   0.79550   0.29319439E+01
   0.79650   0.29517248E+01
   0.79750   0.29909384E+01
   0.79850   0.30257633E+01
   0.79950   0.30251656E+01
   0.80050   0.29855852E+01
   0.80150   0.29383821E+01
   0.80250   0.29097488E+01
   0.80350   0.29059434E+01
   0.80450   0.29238303E+01
   0.80550   0.29583409E+01
   0.80650   0.30014389E+01
   0.80750   0.30390718E+01
   0.80850   0.30568855E+01
   0.80950   0.30529640E+01
   0.81050   0.30391233E+01
   0.81150   0.30287406E+01
   0.81250   0.30276806E+01
   0.81350   0.30339816E+01
   0.81450   0.30418336E+01
   0.81550   0.30461850E+01
   0.81650   0.30457520E+01
   0.81750   0.30429769E+01
   0.81850   0.30415726E+01
   0.81950   0.30439007E+01
   0.82050   0.30497320E+01
   0.82150   0.30564933E+01
   0.82250   0.30604365E+01
   0.82350   0.30580516E+01
   0.82450   0.30469038E+01
   0.82550   0.30247440E+01
   0.82650   0.29916713E+01
   0.82750   0.29587102E+01
   0.82850   0.29310529E+01
   0.82950   0.29092283E+01
   0.83050   0.28926821E+01
   0.83150   0.28800974E+01
   0.83250   0.28697069E+01
   0.83350   0.28597291E+01
   0.83450   0.28487954E+01
   0.83550   0.28362155E+01
   0.83650   0.28219609E+01
   0.83750   0.28063140E+01
   0.83850   0.27889209E+01
   0.83950   0.27642236E+01
   0.84050   0.26565773E+01
   0.84150   0.26119392E+01
   0.84250   0.26910460E+01
   0.84350   0.26944993E+01
   0.84450   0.26874957E+01
   0.84550   0.26739285E+01
   0.84650   0.26544385E+01
   0.84750   0.26293678E+01
   0.84850   0.25986681E+01
   0.84950   0.25578992E+01
   0.85050   0.24968874E+01
   0.85150   0.23959632E+01
   0.85250   0.22482181E+01
   0.85350   0.21836197E+01
   0.85450   0.22620802E+01
   0.85550   0.23265288E+01
   0.85650   0.23520567E+01
   0.85750   0.23847020E+01
   0.85850   0.24550128E+01
   0.85950   0.24607995E+01
   0.86050   0.24385412E+01
   0.86150   0.24146395E+01
   0.86250   0.23879509E+01
   0.86350   0.23459203E+01
   0.86450   0.22581062E+01
   0.86550   0.22176256E+01
   0.86650   0.22853041E+01
   0.86750   0.23665664E+01
   0.86850   0.25573549E+01
   0.86950   0.27211676E+01
   0.87050   0.27143669E+01
   0.87150   0.26749725E+01
   0.87250   0.26686320E+01
   0.87350   0.27209752E+01
   0.87450   0.28325143E+01
   0.87550   0.29455645E+01
   0.87650   0.30257154E+01
   0.87750   0.30915856E+01
   0.87850   0.31348412E+01
   0.87950   0.31393814E+01
   0.88050   0.31178384E+01
   0.88150   0.31026340E+01
   0.88250   0.31131778E+01
   0.88350   0.31392119E+01
   0.88450   0.31430473E+01
   0.88550   0.31141326E+01
   0.88650   0.30891471E+01
   0.88750   0.30918458E+01
   0.88850   0.31185408E+01
   0.88950   0.31505275E+01
   0.89050   0.31682305E+01
   0.89150   0.31691594E+01
   0.89250   0.31680558E+01
   0.89350   0.31783609E+01
   0.89450   0.31985300E+01
   0.89550   0.32146070E+01
   0.89650   0.32172334E+01
   0.89750   0.32115600E+01
   0.89850   0.32073491E+01
   0.89950   0.32082372E+01
   0.90050   0.32075925E+01
   0.90150   0.31937809E+01
   0.90250   0.31719184E+01
   0.90350   0.31432838E+01
   0.90450   0.31048160E+01
   0.90550   0.30530744E+01
   0.90650   0.29682002E+01
   0.90750   0.27964945E+01
   0.90850   0.28190110E+01
   0.90950   0.28481028E+01
   0.91050   0.28485894E+01
   0.91150   0.28448708E+01
   0.91250   0.28419507E+01
   0.91350   0.28396919E+01
   0.91450   0.28370638E+01
   0.91550   0.28334661E+01
   0.91650   0.28287258E+01
   0.91750   0.28221157E+01
   0.91850   0.28101206E+01
   0.91950   0.27806575E+01
   0.92050   0.27027023E+01
   0.92150   0.26042447E+01
   0.92250   0.26390579E+01
   0.92350   0.26879785E+01
   0.92450   0.27072618E+01
   0.92550   0.27199051E+01
   0.92650   0.27441390E+01
   0.92750   0.27898090E+01
   0.92850   0.28432946E+01
   0.92950   0.28643682E+01
   0.93050   0.28587825E+01
   0.93150   0.28338389E+01
   0.93250   0.27911491E+01
   0.93350   0.27446771E+01
   0.93450   0.27005086E+01
   0.93550   0.26578202E+01
   0.93650   0.26149857E+01
   0.93750   0.25745471E+01
   0.93850   0.25464826E+01
   0.93950   0.25413382E+01
   0.94050   0.25542159E+01
   0.94150   0.25768414E+01
   0.94250   0.26342421E+01
   0.94350   0.27712572E+01
   0.94450   0.29778278E+01
   0.94550   0.30705276E+01
   0.94650   0.30674636E+01
   0.94750   0.30567915E+01
   0.94850   0.30502269E+01
   0.94950   0.30322638E+01
   0.95050   0.29910533E+01
   0.95150   0.29334345E+01
   0.95250   0.28741622E+01
   0.95350   0.28205347E+01
   0.95450   0.27710321E+01
   0.95550   0.27190628E+01
   0.95650   0.26627214E+01
   0.95750   0.26063008E+01
   0.95850   0.25552206E+01
   0.95950   0.25186954E+01
   0.96050   0.25077817E+01
   0.96150   0.25434420E+01
   0.96250   0.26851640E+01
   0.96350   0.28430438E+01
   0.96450   0.26694360E+01
   0.96550   0.25274093E+01
   0.96650   0.24529872E+01
   0.96750   0.24057946E+01
   0.96850   0.23718779E+01
   0.96950   0.23480268E+01
   0.97050   0.23345037E+01
   0.97150   0.23304119E+01
   0.97250   0.23284814E+01
   0.97350   0.23155830E+01
   0.97450   0.22844684E+01
   0.97550   0.22402277E+01
   0.97650   0.21895707E+01
   0.97750   0.21359146E+01
   0.97850   0.20810461E+01
   0.97950   0.20250061E+01
   0.98050   0.19678364E+01
   0.98150   0.19109378E+01
   0.98250   0.18574289E+01
   0.98350   0.18114200E+01
   0.98450   0.17765471E+01
   0.98550   0.17537241E+01
   0.98650   0.17352610E+01
   0.98750   0.16959618E+01
   0.98850   0.16513958E+01
   0.98950   0.16404885E+01
   0.99050   0.16168419E+01
   0.99150   0.15733527E+01
   0.99250   0.15238814E+01
   0.99350   0.14937664E+01
   0.99450   0.15030472E+01
   0.99550   0.15332334E+01
   0.99650   0.15689882E+01
   0.99750   0.15995756E+01
   0.99850   0.16159040E+01
   0.99950   0.16161957E+01
