# Transmission, k-averaged
# Date: 2021-05-13
#   E [eV]           T [G0]
   0.00050   0.12277987E-01
   0.00150   0.17087007E-01
   0.00250   0.74805371E-02
   0.00350   0.35904348E-01
   0.00450   0.17412308E-02
   0.00550   0.30838478E-01
   0.00650   0.11496330E-02
   0.00750   0.12848155E-02
   0.00850   0.11309480E-01
   0.00950   0.58962760E-03
   0.01050   0.42668922E-03
   0.01150   0.14870743E-02
   0.01250   0.23160949E-02
   0.01350   0.35359096E-03
   0.01450   0.22529723E-03
   0.01550   0.32961916E-03
   0.01650   0.11823936E-02
   0.01750   0.78359834E-03
   0.01850   0.22162680E-03
   0.01950   0.13395819E-03
   0.02050   0.13558962E-03
   0.02150   0.21375057E-03
   0.02250   0.41139653E-03
   0.02350   0.29546040E-03
   0.02450   0.13157989E-03
   0.02550   0.80080463E-04
   0.02650   0.66874985E-04
   0.02750   0.72657887E-04
   0.02850   0.96435833E-04
   0.02950   0.12778364E-03
   0.03050   0.11448782E-03
   0.03150   0.73463641E-04
   0.03250   0.48536447E-04
   0.03350   0.37565511E-04
   0.03450   0.34283952E-04
   0.03550   0.36011636E-04
   0.03650   0.41288280E-04
   0.03750   0.46213787E-04
   0.03850   0.43726326E-04
   0.03950   0.34396944E-04
   0.04050   0.25550084E-04
   0.04150   0.19913248E-04
   0.04250   0.16889468E-04
   0.04350   0.15406036E-04
   0.04450   0.13967453E-04
   0.04550   0.10582196E-04
   0.04650   0.71207623E-05
   0.04750   0.48227425E-05
   0.04850   0.33506603E-05
   0.04950   0.24032340E-05
   0.05050   0.17859965E-05
   0.05150   0.13757938E-05
   0.05250   0.10958031E-05
   0.05350   0.89824681E-06
   0.05450   0.75314472E-06
   0.05550   0.64150237E-06
   0.05650   0.55137139E-06
   0.05750   0.47554863E-06
   0.05850   0.41006183E-06
   0.05950   0.35298382E-06
   0.06050   0.30346186E-06
   0.06150   0.26102245E-06
   0.06250   0.22519062E-06
   0.06350   0.19536370E-06
   0.06450   0.17082701E-06
   0.06550   0.15081569E-06
   0.06650   0.13457070E-06
   0.06750   0.12137485E-06
   0.06850   0.11057291E-06
   0.06950   0.10158410E-06
   0.07050   0.93913535E-07
   0.07150   0.87162654E-07
   0.07250   0.81035793E-07
   0.07350   0.75338669E-07
   0.07450   0.69967257E-07
   0.07550   0.64888965E-07
   0.07650   0.60120421E-07
   0.07750   0.55706344E-07
   0.07850   0.51702205E-07
   0.07950   0.48161404E-07
   0.08050   0.45126349E-07
   0.08150   0.42622371E-07
   0.08250   0.40653706E-07
   0.08350   0.39201435E-07
   0.08450   0.38223757E-07
   0.08550   0.37659120E-07
   0.08650   0.37432191E-07
   0.08750   0.37461390E-07
   0.08850   0.37663668E-07
   0.08950   0.37941746E-07
   0.09050   0.38084714E-07
   0.09150   0.37194070E-07
   0.09250   0.32742097E-07
   0.09350   0.26526001E-07
   0.09450   0.21437240E-07
   0.09550   0.17527009E-07
   0.09650   0.14511651E-07
   0.09750   0.12179497E-07
   0.09850   0.10380897E-07
   0.09950   0.90024566E-08
   0.10050   0.79519857E-08
   0.10150   0.71512107E-08
   0.10250   0.65328236E-08
   0.10350   0.60396772E-08
   0.10450   0.56248202E-08
   0.10550   0.52516369E-08
   0.10650   0.48937139E-08
   0.10750   0.45342996E-08
   0.10850   0.41653418E-08
   0.10950   0.37861745E-08
   0.11050   0.34019323E-08
   0.11150   0.30218112E-08
   0.11250   0.26572733E-08
   0.11350   0.23203168E-08
   0.11450   0.20219197E-08
   0.11550   0.17707652E-08
   0.11650   0.15723257E-08
   0.11750   0.14283587E-08
   0.11850   0.13368195E-08
   0.11950   0.12921608E-08
   0.12050   0.12859469E-08
   0.12150   0.13076961E-08
   0.12250   0.13458488E-08
   0.12350   0.13887645E-08
   0.12450   0.14256630E-08
   0.12550   0.14474391E-08
   0.12650   0.14472996E-08
   0.12750   0.14211892E-08
   0.12850   0.13679819E-08
   0.12950   0.12894381E-08
   0.13050   0.11899342E-08
   0.13150   0.10759924E-08
   0.13250   0.95565111E-09
   0.13350   0.83772533E-09
   0.13450   0.73102147E-09
   0.13550   0.64356748E-09
   0.13650   0.58192184E-09
   0.13750   0.55061261E-09
   0.13850   0.55174759E-09
   0.13950   0.58482014E-09
   0.14050   0.64672068E-09
   0.14150   0.73195000E-09
   0.14250   0.83301649E-09
   0.14350   0.94099206E-09
   0.14450   0.10461918E-08
   0.14550   0.11389351E-08
   0.14650   0.12103429E-08
   0.14750   0.12531185E-08
   0.14850   0.12622579E-08
   0.14950   0.12356368E-08
   0.15050   0.11744232E-08
   0.15150   0.10832719E-08
   0.15250   0.97026953E-09
   0.15350   0.84661006E-09
   0.15450   0.72599826E-09
   0.15550   0.62379385E-09
   0.15650   0.55592331E-09
   0.15750   0.53760413E-09
   0.15850   0.58193694E-09
   0.15950   0.69844069E-09
   0.16050   0.89161978E-09
   0.16150   0.11596744E-08
   0.16250   0.14934857E-08
   0.16350   0.18760333E-08
   0.16450   0.22824169E-08
   0.16550   0.26806655E-08
   0.16650   0.30335137E-08
   0.16750   0.33012850E-08
   0.16850   0.34459617E-08
   0.16950   0.34364223E-08
   0.17050   0.32546872E-08
   0.17150   0.29028855E-08
   0.17250   0.24105566E-08
   0.17350   0.18420802E-08
   0.17450   0.13049585E-08
   0.17550   0.96061259E-09
   0.17650   0.95741259E-09
   0.17750   0.12157590E-08
   0.17850   0.16149789E-08
   0.17950   0.20897604E-08
   0.18050   0.25941829E-08
   0.18150   0.30890110E-08
   0.18250   0.35395584E-08
   0.18350   0.39166190E-08
   0.18450   0.41981458E-08
   0.18550   0.43706967E-08
   0.18650   0.44301536E-08
   0.18750   0.43814987E-08
   0.18850   0.42376724E-08
   0.18950   0.40176973E-08
   0.19050   0.37443799E-08
   0.19150   0.34419225E-08
   0.19250   0.31337408E-08
   0.19350   0.28407028E-08
   0.19450   0.25799003E-08
   0.19550   0.23639672E-08
   0.19650   0.22008921E-08
   0.19750   0.20942201E-08
   0.19850   0.20435365E-08
   0.19950   0.20451143E-08
   0.20050   0.20926387E-08
   0.20150   0.21779343E-08
   0.20250   0.22916504E-08
   0.20350   0.24238744E-08
   0.20450   0.25646625E-08
   0.20550   0.27044829E-08
   0.20650   0.28345786E-08
   0.20750   0.29472531E-08
   0.20850   0.30360905E-08
   0.20950   0.30961149E-08
   0.21050   0.31238994E-08
   0.21150   0.31176246E-08
   0.21250   0.30770964E-08
   0.21350   0.30037326E-08
   0.21450   0.29005638E-08
   0.21550   0.27725311E-08
   0.21650   0.26291604E-08
   0.21750   0.25048894E-08
   0.21850   0.24739026E-08
   0.21950   0.25185918E-08
   0.22050   0.26040521E-08
   0.22150   0.27194578E-08
   0.22250   0.28597946E-08
   0.22350   0.30210163E-08
   0.22450   0.31989804E-08
   0.22550   0.33892202E-08
   0.22650   0.35869629E-08
   0.22750   0.37872403E-08
   0.22850   0.39850363E-08
   0.22950   0.41754435E-08
   0.23050   0.43537942E-08
   0.23150   0.45156803E-08
   0.23250   0.46565511E-08
   0.23350   0.47692414E-08
   0.23450   0.48308508E-08
   0.23550   0.48090216E-08
   0.23650   0.47567004E-08
   0.23750   0.47183728E-08
   0.23850   0.47084345E-08
   0.23950   0.47334581E-08
   0.24050   0.47969877E-08
   0.24150   0.49009130E-08
   0.24250   0.50463695E-08
   0.24350   0.52346243E-08
   0.24450   0.54680465E-08
   0.24550   0.57511933E-08
   0.24650   0.60920460E-08
   0.24750   0.65034547E-08
   0.24850   0.70049015E-08
   0.24950   0.76247559E-08
   0.25050   0.84033021E-08
   0.25150   0.93969508E-08
   0.25250   0.10684276E-07
   0.25350   0.12374779E-07
   0.25450   0.14621741E-07
   0.25550   0.17641149E-07
   0.25650   0.21739629E-07
   0.25750   0.27355815E-07
   0.25850   0.35121822E-07
   0.25950   0.45955250E-07
   0.26050   0.61198236E-07
   0.26150   0.82830411E-07
   0.26250   0.11380086E-06
   0.26350   0.15855670E-06
   0.26450   0.22390678E-06
   0.26550   0.32047546E-06
   0.26650   0.46523357E-06
   0.26750   0.68607523E-06
   0.26850   0.10304539E-05
   0.26950   0.15824738E-05
   0.27050   0.24985773E-05
   0.27150   0.40866817E-05
   0.27250   0.69936805E-05
   0.27350   0.12681469E-04
   0.27450   0.24708957E-04
   0.27550   0.52196308E-04
   0.27650   0.11706712E-03
   0.27750   0.24705278E-03
   0.27850   0.36426706E-03
   0.27950   0.28413194E-03
   0.28050   0.13370583E-03
   0.28150   0.54530374E-04
   0.28250   0.23671590E-04
   0.28350   0.11577185E-04
   0.28450   0.64097508E-05
   0.28550   0.39856027E-05
   0.28650   0.27543028E-05
   0.28750   0.20919656E-05
   0.28850   0.17261995E-05
   0.28950   0.15293839E-05
   0.29050   0.14383779E-05
   0.29150   0.14209652E-05
   0.29250   0.14609097E-05
   0.29350   0.15509635E-05
   0.29450   0.16895083E-05
   0.29550   0.18789888E-05
   0.29650   0.21253375E-05
   0.29750   0.24381977E-05
   0.29850   0.28331026E-05
   0.29950   0.33378678E-05
   0.30050   0.39809775E-05
   0.30150   0.47923827E-05
   0.30250   0.58185879E-05
   0.30350   0.71247582E-05
   0.30450   0.88009101E-05
   0.30550   0.10972645E-04
   0.30650   0.13817885E-04
   0.30750   0.17593202E-04
   0.30850   0.22676326E-04
   0.30950   0.29636791E-04
   0.31050   0.39357656E-04
   0.31150   0.53254022E-04
   0.31250   0.73685136E-04
   0.31350   0.10477897E-03
   0.31450   0.15420635E-03
   0.31550   0.23736259E-03
   0.31650   0.38846384E-03
   0.31750   0.69513678E-03
   0.31850   0.14331166E-02
   0.31950   0.38039691E-02
   0.32050   0.17760634E-01
   0.32150   0.17764865E+00
   0.32250   0.30606767E-01
   0.32350   0.18207343E-01
   0.32450   0.25687382E-01
   0.32550   0.46485689E-01
   0.32650   0.69396384E-01
   0.32750   0.85824668E-01
   0.32850   0.64934075E-01
   0.32950   0.43651603E-01
   0.33050   0.33474669E-01
   0.33150   0.29161476E-01
   0.33250   0.30378640E-01
   0.33350   0.36813643E-01
   0.33450   0.46606403E-01
   0.33550   0.50983947E-01
   0.33650   0.55363951E-02
   0.33750   0.46390351E-02
   0.33850   0.24026064E-02
   0.33950   0.27192053E-02
   0.34050   0.13930065E-02
   0.34150   0.75797481E-03
   0.34250   0.91164734E-03
   0.34350   0.80166687E-03
   0.34450   0.83946815E-03
   0.34550   0.12681229E-02
   0.34650   0.18478271E-02
   0.34750   0.19231277E-02
   0.34850   0.18188817E-02
   0.34950   0.17822487E-02
   0.35050   0.17413947E-02
   0.35150   0.15448844E-02
   0.35250   0.11788044E-02
   0.35350   0.79955783E-03
   0.35450   0.50587050E-03
   0.35550   0.29879343E-03
   0.35650   0.15867173E-03
   0.35750   0.74032236E-04
   0.35850   0.35143014E-04
   0.35950   0.26924905E-04
   0.36050   0.32609492E-04
   0.36150   0.39859940E-04
   0.36250   0.42973392E-04
   0.36350   0.41739830E-04
   0.36450   0.37325455E-04
   0.36550   0.31832646E-04
   0.36650   0.27220542E-04
   0.36750   0.24231902E-04
   0.36850   0.22484295E-04
   0.36950   0.21032161E-04
   0.37050   0.18975690E-04
   0.37150   0.15895253E-04
   0.37250   0.11977300E-04
   0.37350   0.78387848E-05
   0.37450   0.42113197E-05
   0.37550   0.16629988E-05
   0.37650   0.43858162E-06
   0.37750   0.41862410E-06
   0.37850   0.11793445E-05
   0.37950   0.21324965E-05
   0.38050   0.27022468E-05
   0.38150   0.24782955E-05
   0.38250   0.15265962E-05
   0.38350   0.65424553E-06
   0.38450   0.18852603E-06
   0.38550   0.12377983E-06
   0.38650   0.40231413E-06
   0.38750   0.93569344E-06
   0.38850   0.16163779E-05
   0.38950   0.23327639E-05
   0.39050   0.29836965E-05
   0.39150   0.34898028E-05
   0.39250   0.38003827E-05
   0.39350   0.38956541E-05
   0.39450   0.37848745E-05
   0.39550   0.35013054E-05
   0.39650   0.30951619E-05
   0.39750   0.26256757E-05
   0.39850   0.21532862E-05
   0.39950   0.17327753E-05
   0.40050   0.14079416E-05
   0.40150   0.12081599E-05
   0.40250   0.11469371E-05
   0.40350   0.12223398E-05
   0.40450   0.14189935E-05
   0.40550   0.17112127E-05
   0.40650   0.20667676E-05
   0.40750   0.24507856E-05
   0.40850   0.28293382E-05
   0.40950   0.31723155E-05
   0.41050   0.34551979E-05
   0.41150   0.36590707E-05
   0.41250   0.37668708E-05
   0.41350   0.37481789E-05
   0.41450   0.35520434E-05
   0.41550   0.33452075E-05
   0.41650   0.33673921E-05
   0.41750   0.36757381E-05
   0.41850   0.42649040E-05
   0.41950   0.51006705E-05
   0.42050   0.61293722E-05
   0.42150   0.72861653E-05
   0.42250   0.85034253E-05
   0.42350   0.97186994E-05
   0.42450   0.10881662E-04
   0.42550   0.11959723E-04
   0.42650   0.12942142E-04
   0.42750   0.13842610E-04
   0.42850   0.14700354E-04
   0.42950   0.15579899E-04
   0.43050   0.16569684E-04
   0.43150   0.17779892E-04
   0.43250   0.19339912E-04
   0.43350   0.21396050E-04
   0.43450   0.24110130E-04
   0.43550   0.27659757E-04
   0.43650   0.32240998E-04
   0.43750   0.38074391E-04
   0.43850   0.45415298E-04
   0.43950   0.54569951E-04
   0.44050   0.65919179E-04
   0.44150   0.79952704E-04
   0.44250   0.97318698E-04
   0.44350   0.11889572E-03
   0.44450   0.14589907E-03
   0.44550   0.18004097E-03
   0.44650   0.22377777E-03
   0.44750   0.28070243E-03
   0.44850   0.35618711E-03
   0.44950   0.45847346E-03
   0.45050   0.60059770E-03
   0.45150   0.80395199E-03
   0.45250   0.11052386E-02
   0.45350   0.15709533E-02
   0.45450   0.23299695E-02
   0.45550   0.36537971E-02
   0.45650   0.61715175E-02
   0.45750   0.11214654E-01
   0.45850   0.23281217E-01
   0.45950   0.84931791E-01
   0.46050   0.24231997E+00
   0.46150   0.11869016E+00
   0.46250   0.50017133E-01
   0.46350   0.28784113E-01
   0.46450   0.20373311E-01
   0.46550   0.16667800E-01
   0.46650   0.15331037E-01
   0.46750   0.15655462E-01
   0.46850   0.17282408E-01
   0.46950   0.18108221E-01
   0.47050   0.14071555E-01
   0.47150   0.10500024E-01
   0.47250   0.11324446E-01
   0.47350   0.83941286E-02
   0.47450   0.85379719E-03
   0.47550   0.31469640E-03
   0.47650   0.10475606E-02
   0.47750   0.21902837E-02
   0.47850   0.44952109E-02
   0.47950   0.71489140E-02
   0.48050   0.70009963E-02
   0.48150   0.59789442E-02
   0.48250   0.55778786E-02
   0.48350   0.48083067E-02
   0.48450   0.29891878E-02
   0.48550   0.15043924E-02
   0.48650   0.74442895E-03
   0.48750   0.37474293E-03
   0.48850   0.17913795E-03
   0.48950   0.75685464E-04
   0.49050   0.34689801E-04
   0.49150   0.22775059E-04
   0.49250   0.14692152E-04
   0.49350   0.73111055E-05
   0.49450   0.70044289E-05
   0.49550   0.21961423E-04
   0.49650   0.59713486E-04
   0.49750   0.12222491E-03
   0.49850   0.19963214E-03
   0.49950   0.27181351E-03
   0.50050   0.32439842E-03
   0.50150   0.35197107E-03
   0.50250   0.35424976E-03
   0.50350   0.33373397E-03
   0.50450   0.29483429E-03
   0.50550   0.24391913E-03
   0.50650   0.18882118E-03
   0.50750   0.13709973E-03
   0.50850   0.94020877E-04
   0.50950   0.61705941E-04
   0.51050   0.39682676E-04
   0.51150   0.26009448E-04
   0.51250   0.18236475E-04
   0.51350   0.14012228E-04
   0.51450   0.11442125E-04
   0.51550   0.93052922E-05
   0.51650   0.71263980E-05
   0.51750   0.50545218E-05
   0.51850   0.35787700E-05
   0.51950   0.32156897E-05
   0.52050   0.42935303E-05
   0.52150   0.66730167E-05
   0.52250   0.96070980E-05
   0.52350   0.12531757E-04
   0.52450   0.15047707E-04
   0.52550   0.16819404E-04
   0.52650   0.17605969E-04
   0.52750   0.17304617E-04
   0.52850   0.15976379E-04
   0.52950   0.13841266E-04
   0.53050   0.11246317E-04
   0.53150   0.86235541E-05
   0.53250   0.64508567E-05
   0.53350   0.51492739E-05
   0.53450   0.52549422E-05
   0.53550   0.75219764E-05
   0.53650   0.12292313E-04
   0.53750   0.19617741E-04
   0.53850   0.29401730E-04
   0.53950   0.41485513E-04
   0.54050   0.55730405E-04
   0.54150   0.72107381E-04
   0.54250   0.90800255E-04
   0.54350   0.11233496E-03
   0.54450   0.13776077E-03
   0.54550   0.16893452E-03
   0.54650   0.20900942E-03
   0.54750   0.26334118E-03
   0.54850   0.34128575E-03
   0.54950   0.46003651E-03
   0.55050   0.65356190E-03
   0.55150   0.99586998E-03
   0.55250   0.16711988E-02
   0.55350   0.32339995E-02
   0.55450   0.79049738E-02
   0.55550   0.28832365E-01
   0.55650   0.67201711E-01
   0.55750   0.21313798E-01
   0.55850   0.90152211E-02
   0.55950   0.53044586E-02
   0.56050   0.37912866E-02
   0.56150   0.30868493E-02
   0.56250   0.27746183E-02
   0.56350   0.27094700E-02
   0.56450   0.28498364E-02
   0.56550   0.32077620E-02
   0.56650   0.38200039E-02
   0.56750   0.46669631E-02
   0.56850   0.54341797E-02
   0.56950   0.53813271E-02
   0.57050   0.42801183E-02
   0.57150   0.29312908E-02
   0.57250   0.19057583E-02
   0.57350   0.12372461E-02
   0.57450   0.82138204E-03
   0.57550   0.59135637E-03
   0.57650   0.53745735E-03
   0.57750   0.64699823E-03
   0.57850   0.77913608E-03
   0.57950   0.68191439E-03
   0.58050   0.24704851E-03
   0.58150   0.14698297E-03
   0.58250   0.26106634E-03
   0.58350   0.79990673E-03
   0.58450   0.10419226E-02
   0.58550   0.75722946E-03
   0.58650   0.35774437E-03
   0.58750   0.11152683E-03
   0.58850   0.65476343E-04
   0.58950   0.15536071E-03
   0.59050   0.33339229E-03
   0.59150   0.61959628E-03
   0.59250   0.11415000E-02
   0.59350   0.21068850E-02
   0.59450   0.29682091E-02
   0.59550   0.25583801E-02
   0.59650   0.18471972E-02
   0.59750   0.13756083E-02
   0.59850   0.10227937E-02
   0.59950   0.65919437E-03
   0.60050   0.32203557E-03
   0.60150   0.12138270E-03
   0.60250   0.45729445E-04
   0.60350   0.34579378E-04
   0.60450   0.52127423E-04
   0.60550   0.83570128E-04
   0.60650   0.12218559E-03
   0.60750   0.16409237E-03
   0.60850   0.20902469E-03
   0.60950   0.26110586E-03
   0.61050   0.32627484E-03
   0.61150   0.40975219E-03
   0.61250   0.51550585E-03
   0.61350   0.64628833E-03
   0.61450   0.80282358E-03
   0.61550   0.98143704E-03
   0.61650   0.11700527E-02
   0.61750   0.13433460E-02
   0.61850   0.14684744E-02
   0.61950   0.15474469E-02
   0.62050   0.15827430E-02
   0.62150   0.15594496E-02
   0.62250   0.14704025E-02
   0.62350   0.13687704E-02
   0.62450   0.12810127E-02
   0.62550   0.11959152E-02
   0.62650   0.11089798E-02
   0.62750   0.10204401E-02
   0.62850   0.93294523E-03
   0.62950   0.85094915E-03
   0.63050   0.78111514E-03
   0.63150   0.73405873E-03
   0.63250   0.72886021E-03
   0.63350   0.80443459E-03
   0.63450   0.10499866E-02
   0.63550   0.16931974E-02
   0.63650   0.33521329E-02
   0.63750   0.72877044E-02
   0.63850   0.11511470E-01
   0.63950   0.94548827E-02
   0.64050   0.61761355E-02
   0.64150   0.42384104E-02
   0.64250   0.31557009E-02
   0.64350   0.25099562E-02
   0.64450   0.20991096E-02
   0.64550   0.18261620E-02
   0.64650   0.16420132E-02
   0.64750   0.15207889E-02
   0.64850   0.14489441E-02
   0.64950   0.14202694E-02
   0.65050   0.14336475E-02
   0.65150   0.14922867E-02
   0.65250   0.16039243E-02
   0.65350   0.17817833E-02
   0.65450   0.20459360E-02
   0.65550   0.24236639E-02
   0.65650   0.29436394E-02
   0.65750   0.36089178E-02
   0.65850   0.43229945E-02
   0.65950   0.47964621E-02
   0.66050   0.46698730E-02
   0.66150   0.39475588E-02
   0.66250   0.30248731E-02
   0.66350   0.22222335E-02
   0.66450   0.16259756E-02
   0.66550   0.12068597E-02
   0.66650   0.91432733E-03
   0.66750   0.70657022E-03
   0.66850   0.55395166E-03
   0.66950   0.43713732E-03
   0.67050   0.34765070E-03
   0.67150   0.28967456E-03
   0.67250   0.27182567E-03
   0.67350   0.29371513E-03
   0.67450   0.34649670E-03
   0.67550   0.41100831E-03
   0.67650   0.45317967E-03
   0.67750   0.45926496E-03
   0.67850   0.46378438E-03
   0.67950   0.50388515E-03
   0.68050   0.51635911E-03
   0.68150   0.35532305E-03
   0.68250   0.21222779E-03
   0.68350   0.15217169E-03
   0.68450   0.12902872E-03
   0.68550   0.11954043E-03
   0.68650   0.11470115E-03
   0.68750   0.11112929E-03
   0.68850   0.10825933E-03
   0.68950   0.10626875E-03
   0.69050   0.10484808E-03
   0.69150   0.10382484E-03
   0.69250   0.10328636E-03
   0.69350   0.10348961E-03
   0.69450   0.10468291E-03
   0.69550   0.10674012E-03
   0.69650   0.10828883E-03
   0.69750   0.10547267E-03
   0.69850   0.95588635E-04
   0.69950   0.89274596E-04
   0.70050   0.98629876E-04
   0.70150   0.12124790E-03
   0.70250   0.15202473E-03
   0.70350   0.18734214E-03
   0.70450   0.22297446E-03
   0.70550   0.25359125E-03
   0.70650   0.27048084E-03
   0.70750   0.27181016E-03
   0.70850   0.26466566E-03
   0.70950   0.25534086E-03
   0.71050   0.24743364E-03
   0.71150   0.24268051E-03
   0.71250   0.24191737E-03
   0.71350   0.24564989E-03
   0.71450   0.25430231E-03
   0.71550   0.26827119E-03
   0.71650   0.28785886E-03
   0.71750   0.31312191E-03
   0.71850   0.34367564E-03
   0.71950   0.37854505E-03
   0.72050   0.41622337E-03
   0.72150   0.45509954E-03
   0.72250   0.49425324E-03
   0.72350   0.53434889E-03
   0.72450   0.57830138E-03
   0.72550   0.63177606E-03
   0.72650   0.70432835E-03
   0.72750   0.81321620E-03
   0.72850   0.99557173E-03
   0.72950   0.13500676E-02
   0.73050   0.22011276E-02
   0.73150   0.45222216E-02
   0.73250   0.52429652E-02
   0.73350   0.26250486E-02
   0.73450   0.17379371E-02
   0.73550   0.15145367E-02
   0.73650   0.15076583E-02
   0.73750   0.15969408E-02
   0.73850   0.17462382E-02
   0.73950   0.19459167E-02
   0.74050   0.21966673E-02
   0.74150   0.25035329E-02
   0.74250   0.28720845E-02
   0.74350   0.33034759E-02
   0.74450   0.37860873E-02
   0.74550   0.42827544E-02
   0.74650   0.47179041E-02
   0.74750   0.49808202E-02
   0.74850   0.49678097E-02
   0.74950   0.46542427E-02
   0.75050   0.41287118E-02
   0.75150   0.35422803E-02
   0.75250   0.30280985E-02
   0.75350   0.26653083E-02
   0.75450   0.24893563E-02
   0.75550   0.25126245E-02
   0.75650   0.27276352E-02
   0.75750   0.30811974E-02
   0.75850   0.34471266E-02
   0.75950   0.36822970E-02
   0.76050   0.37492402E-02
   0.76150   0.37232824E-02
   0.76250   0.36934263E-02
   0.76350   0.37078878E-02
   0.76450   0.37736136E-02
   0.76550   0.38654215E-02
   0.76650   0.39493116E-02
   0.76750   0.40269662E-02
   0.76850   0.41352883E-02
   0.76950   0.42756428E-02
   0.77050   0.43788729E-02
   0.77150   0.43776482E-02
   0.77250   0.42872294E-02
   0.77350   0.41702152E-02
   0.77450   0.40656594E-02
   0.77550   0.39740503E-02
   0.77650   0.38747503E-02
   0.77750   0.37443016E-02
   0.77850   0.35687627E-02
   0.77950   0.33507298E-02
   0.78050   0.31196033E-02
   0.78150   0.29778301E-02
   0.78250   0.30892850E-02
   0.78350   0.32824026E-02
   0.78450   0.33522781E-02
   0.78550   0.33587795E-02
   0.78650   0.33613837E-02
   0.78750   0.33755957E-02
   0.78850   0.34004089E-02
   0.78950   0.34293849E-02
   0.79050   0.34539306E-02
   0.79150   0.34647200E-02
   0.79250   0.34529108E-02
   0.79350   0.34114872E-02
   0.79450   0.33366543E-02
   0.79550   0.32290770E-02
   0.79650   0.30947190E-02
   0.79750   0.29450867E-02
   0.79850   0.27968544E-02
   0.79950   0.26710795E-02
   0.80050   0.25921478E-02
   0.80150   0.25859277E-02
   0.80250   0.26757056E-02
   0.80350   0.28743527E-02
   0.80450   0.31734293E-02
   0.80550   0.35351047E-02
   0.80650   0.38966716E-02
   0.80750   0.41913455E-02
   0.80850   0.43738154E-02
   0.80950   0.44328053E-02
   0.81050   0.43854592E-02
   0.81150   0.42629736E-02
   0.81250   0.40982342E-02
   0.81350   0.39193928E-02
   0.81450   0.37481904E-02
   0.81550   0.36006754E-02
   0.81650   0.34886473E-02
   0.81750   0.34210200E-02
   0.81850   0.34048129E-02
   0.81950   0.34457331E-02
   0.82050   0.35484177E-02
   0.82150   0.37165151E-02
   0.82250   0.39529656E-02
   0.82350   0.42613777E-02
   0.82450   0.46517686E-02
   0.82550   0.51636868E-02
   0.82650   0.58608134E-02
   0.82750   0.66684913E-02
   0.82850   0.75309547E-02
   0.82950   0.84397448E-02
   0.83050   0.93897600E-02
   0.83150   0.10376433E-01
   0.83250   0.11397454E-01
   0.83350   0.12453762E-01
   0.83450   0.13549386E-01
   0.83550   0.14690456E-01
   0.83650   0.15883956E-01
   0.83750   0.17136447E-01
   0.83850   0.18452071E-01
   0.83950   0.19827303E-01
   0.84050   0.21238256E-01
   0.84150   0.22617998E-01
   0.84250   0.23833305E-01
   0.84350   0.24692336E-01
   0.84450   0.25074994E-01
   0.84550   0.25018714E-01
   0.84650   0.24637450E-01
   0.84750   0.24050068E-01
   0.84850   0.23306428E-01
   0.84950   0.22444351E-01
   0.85050   0.21543441E-01
   0.85150   0.20648515E-01
   0.85250   0.19739017E-01
   0.85350   0.18717956E-01
   0.85450   0.17458551E-01
   0.85550   0.16238924E-01
   0.85650   0.16350865E-01
   0.85750   0.17514633E-01
   0.85850   0.18119743E-01
   0.85950   0.17792299E-01
   0.86050   0.20386841E-01
   0.86150   0.23521656E-01
   0.86250   0.22305101E-01
   0.86350   0.21948261E-01
   0.86450   0.22461234E-01
   0.86550   0.24297163E-01
   0.86650   0.27551334E-01
   0.86750   0.30236788E-01
   0.86850   0.30605111E-01
   0.86950   0.29699795E-01
   0.87050   0.28633403E-01
   0.87150   0.27817111E-01
   0.87250   0.27382083E-01
   0.87350   0.27333846E-01
   0.87450   0.27583726E-01
   0.87550   0.28014794E-01
   0.87650   0.28561858E-01
   0.87750   0.29215984E-01
   0.87850   0.29962337E-01
   0.87950   0.30730346E-01
   0.88050   0.31389326E-01
   0.88150   0.31780690E-01
   0.88250   0.31771574E-01
   0.88350   0.31308271E-01
   0.88450   0.30440772E-01
   0.88550   0.29301845E-01
   0.88650   0.28053867E-01
   0.88750   0.26836481E-01
   0.88850   0.25740616E-01
   0.88950   0.24812054E-01
   0.89050   0.24071204E-01
   0.89150   0.23533221E-01
   0.89250   0.23219369E-01
   0.89350   0.23158807E-01
   0.89450   0.23384647E-01
   0.89550   0.23927985E-01
   0.89650   0.24811210E-01
   0.89750   0.26039978E-01
   0.89850   0.27593229E-01
   0.89950   0.29415090E-01
   0.90050   0.31417839E-01
   0.90150   0.33401538E-01
   0.90250   0.35049140E-01
   0.90350   0.36306858E-01
   0.90450   0.37255324E-01
   0.90550   0.37991926E-01
   0.90650   0.38616009E-01
   0.90750   0.39208036E-01
   0.90850   0.39815933E-01
   0.90950   0.40450826E-01
   0.91050   0.41089397E-01
   0.91150   0.41681662E-01
   0.91250   0.42164531E-01
   0.91350   0.42480562E-01
   0.91450   0.42597346E-01
   0.91550   0.42519167E-01
   0.91650   0.42274404E-01
   0.91750   0.41808825E-01
   0.91850   0.40384661E-01
   0.91950   0.34839608E-01
   0.92050   0.28740253E-01
   0.92150   0.29356385E-01
   0.92250   0.31074904E-01
   0.92350   0.32692086E-01
   0.92450   0.34418993E-01
   0.92550   0.36443941E-01
   0.92650   0.38864631E-01
   0.92750   0.41729562E-01
   0.92850   0.45062769E-01
   0.92950   0.48849102E-01
   0.93050   0.52969702E-01
   0.93150   0.57118755E-01
   0.93250   0.60805205E-01
   0.93350   0.63545845E-01
   0.93450   0.65161884E-01
   0.93550   0.65897807E-01
   0.93650   0.66252798E-01
   0.93750   0.66718906E-01
   0.93850   0.67618169E-01
   0.93950   0.69058523E-01
   0.94050   0.70954561E-01
   0.94150   0.73078476E-01
   0.94250   0.75129494E-01
   0.94350   0.76807864E-01
   0.94450   0.77868000E-01
   0.94550   0.78181721E-01
   0.94650   0.77838384E-01
   0.94750   0.77004656E-01
   0.94850   0.75862639E-01
   0.94950   0.74583456E-01
   0.95050   0.73302001E-01
   0.95150   0.72107449E-01
   0.95250   0.71044929E-01
   0.95350   0.70122391E-01
   0.95450   0.69318153E-01
   0.95550   0.68619430E-01
   0.95650   0.68179421E-01
   0.95750   0.67989729E-01
   0.95850   0.67860246E-01
   0.95950   0.67662857E-01
   0.96050   0.67331664E-01
   0.96150   0.66848189E-01
   0.96250   0.66226549E-01
   0.96350   0.65497346E-01
   0.96450   0.64692110E-01
   0.96550   0.63829347E-01
   0.96650   0.62901080E-01
   0.96750   0.61854541E-01
   0.96850   0.60553130E-01
   0.96950   0.58674842E-01
   0.97050   0.55493105E-01
   0.97150   0.50312523E-01
   0.97250   0.48007246E-01
   0.97350   0.52102834E-01
   0.97450   0.55139240E-01
   0.97550   0.56346972E-01
   0.97650   0.56894608E-01
   0.97750   0.57600632E-01
   0.97850   0.59004631E-01
   0.97950   0.61718900E-01
   0.98050   0.66465348E-01
   0.98150   0.73600471E-01
   0.98250   0.82040183E-01
   0.98350   0.89553714E-01
   0.98450   0.95441900E-01
   0.98550   0.10085897E+00
   0.98650   0.10686106E+00
   0.98750   0.11375008E+00
   0.98850   0.12141275E+00
   0.98950   0.12977451E+00
   0.99050   0.13892090E+00
   0.99150   0.14908421E+00
   0.99250   0.16049911E+00
   0.99350   0.17298552E+00
   0.99450   0.18557361E+00
   0.99550   0.19779623E+00
   0.99650   0.21015866E+00
   0.99750   0.22390758E+00
   0.99850   0.24071690E+00
   0.99950   0.25980440E+00
