# Transmission, k-averaged
# Date: 2021-05-13
#   E [eV]           T [G0]
   0.00050   0.18576272E-01
   0.00150   0.57972331E-01
   0.00250   0.71291499E-01
   0.00350   0.49074367E-01
   0.00450   0.25453888E-01
   0.00550   0.18008420E-01
   0.00650   0.29062776E-01
   0.00750   0.16735557E-01
   0.00850   0.23706369E-01
   0.00950   0.24083987E-01
   0.01050   0.16221622E-01
   0.01150   0.30844817E-01
   0.01250   0.28281789E-01
   0.01350   0.16345697E-01
   0.01450   0.24051139E-01
   0.01550   0.54601006E-01
   0.01650   0.22453070E-01
   0.01750   0.14075737E-01
   0.01850   0.22713369E-01
   0.01950   0.84449105E-01
   0.02050   0.21049231E-01
   0.02150   0.86564953E-02
   0.02250   0.92827203E-02
   0.02350   0.35443347E-01
   0.02450   0.36603756E-01
   0.02550   0.76595321E-02
   0.02650   0.61793225E-02
   0.02750   0.12352140E-01
   0.02850   0.61297327E-01
   0.02950   0.34866016E-01
   0.03050   0.14091020E-01
   0.03150   0.11555973E-01
   0.03250   0.14367702E-01
   0.03350   0.19115308E-01
   0.03450   0.15590982E-01
   0.03550   0.91083394E-02
   0.03650   0.55859727E-02
   0.03750   0.36422282E-02
   0.03850   0.22507058E-02
   0.03950   0.11974546E-02
   0.04050   0.56279794E-03
   0.04150   0.35901213E-03
   0.04250   0.52868121E-03
   0.04350   0.99847745E-03
   0.04450   0.16602433E-02
   0.04550   0.22507026E-02
   0.04650   0.26657246E-02
   0.04750   0.29750434E-02
   0.04850   0.32302472E-02
   0.04950   0.35183732E-02
   0.05050   0.39196578E-02
   0.05150   0.44636866E-02
   0.05250   0.50798184E-02
   0.05350   0.55709402E-02
   0.05450   0.57396218E-02
   0.05550   0.56071142E-02
   0.05650   0.53879987E-02
   0.05750   0.52839918E-02
   0.05850   0.53987694E-02
   0.05950   0.57539460E-02
   0.06050   0.62836311E-02
   0.06150   0.67912717E-02
   0.06250   0.69898837E-02
   0.06350   0.67401803E-02
   0.06450   0.62089907E-02
   0.06550   0.56759249E-02
   0.06650   0.53172214E-02
   0.06750   0.51893475E-02
   0.06850   0.52803163E-02
   0.06950   0.55245776E-02
   0.07050   0.57815732E-02
   0.07150   0.58472622E-02
   0.07250   0.55834828E-02
   0.07350   0.50585656E-02
   0.07450   0.44743307E-02
   0.07550   0.39907452E-02
   0.07650   0.36705292E-02
   0.07750   0.35143076E-02
   0.07850   0.34923833E-02
   0.07950   0.35472703E-02
   0.08050   0.35826070E-02
   0.08150   0.34824549E-02
   0.08250   0.31943386E-02
   0.08350   0.27891500E-02
   0.08450   0.23923370E-02
   0.08550   0.20874217E-02
   0.08650   0.19012925E-02
   0.08750   0.18325330E-02
   0.08850   0.18691748E-02
   0.08950   0.19806672E-02
   0.09050   0.20885249E-02
   0.09150   0.20638555E-02
   0.09250   0.18433016E-02
   0.09350   0.16305206E-02
   0.09450   0.15628843E-02
   0.09550   0.16382362E-02
   0.09650   0.18333289E-02
   0.09750   0.21003271E-02
   0.09850   0.23568722E-02
   0.09950   0.25305310E-02
   0.10050   0.26176528E-02
   0.10150   0.26654867E-02
   0.10250   0.27150523E-02
   0.10350   0.27774938E-02
   0.10450   0.28411222E-02
   0.10550   0.28869512E-02
   0.10650   0.29022556E-02
   0.10750   0.28865347E-02
   0.10850   0.28487046E-02
   0.10950   0.28002814E-02
   0.11050   0.27501811E-02
   0.11150   0.27030346E-02
   0.11250   0.26599355E-02
   0.11350   0.26200342E-02
   0.11450   0.25819838E-02
   0.11550   0.25448445E-02
   0.11650   0.25084077E-02
   0.11750   0.24730840E-02
   0.11850   0.24395790E-02
   0.11950   0.24085511E-02
   0.12050   0.23803797E-02
   0.12150   0.23550803E-02
   0.12250   0.23323458E-02
   0.12350   0.23116702E-02
   0.12450   0.22924957E-02
   0.12550   0.22743451E-02
   0.12650   0.22569082E-02
   0.12750   0.22400697E-02
   0.12850   0.22238831E-02
   0.12950   0.22085088E-02
   0.13050   0.21941368E-02
   0.13150   0.21809151E-02
   0.13250   0.21689006E-02
   0.13350   0.21580372E-02
   0.13450   0.21481644E-02
   0.13550   0.21390470E-02
   0.13650   0.21304199E-02
   0.13750   0.21220350E-02
   0.13850   0.21137046E-02
   0.13950   0.21053266E-02
   0.14050   0.20968942E-02
   0.14150   0.20884864E-02
   0.14250   0.20802424E-02
   0.14350   0.20723278E-02
   0.14450   0.20649002E-02
   0.14550   0.20580771E-02
   0.14650   0.20519162E-02
   0.14750   0.20464058E-02
   0.14850   0.20414696E-02
   0.14950   0.20369813E-02
   0.15050   0.20327880E-02
   0.15150   0.20287375E-02
   0.15250   0.20247030E-02
   0.15350   0.20206042E-02
   0.15450   0.20164200E-02
   0.15550   0.20121897E-02
   0.15650   0.20080050E-02
   0.15750   0.20039929E-02
   0.15850   0.20002946E-02
   0.15950   0.19970404E-02
   0.16050   0.19943286E-02
   0.16150   0.19922084E-02
   0.16250   0.19906694E-02
   0.16350   0.19896389E-02
   0.16450   0.19889860E-02
   0.16550   0.19885292E-02
   0.16650   0.19880466E-02
   0.16750   0.19872789E-02
   0.16850   0.19859166E-02
   0.16950   0.19835532E-02
   0.17050   0.19795664E-02
   0.17150   0.19728311E-02
   0.17250   0.19609837E-02
   0.17350   0.19382362E-02
   0.17450   0.18875813E-02
   0.17550   0.17596269E-02
   0.17650   0.15545078E-02
   0.17750   0.13829769E-02
   0.17850   0.12546884E-02
   0.17950   0.11548531E-02
   0.18050   0.10740648E-02
   0.18150   0.10067717E-02
   0.18250   0.94950816E-03
   0.18350   0.89998171E-03
   0.18450   0.85660326E-03
   0.18550   0.81822928E-03
   0.18650   0.78401138E-03
   0.18750   0.75330428E-03
   0.18850   0.72560617E-03
   0.18950   0.70051954E-03
   0.19050   0.67772408E-03
   0.19150   0.65695774E-03
   0.19250   0.63800334E-03
   0.19350   0.62067958E-03
   0.19450   0.60483423E-03
   0.19550   0.59034029E-03
   0.19650   0.57709316E-03
   0.19750   0.56500977E-03
   0.19850   0.55402901E-03
   0.19950   0.54411311E-03
   0.20050   0.53525117E-03
   0.20150   0.52746385E-03
   0.20250   0.52081211E-03
   0.20350   0.51540916E-03
   0.20450   0.51144062E-03
   0.20550   0.50919538E-03
   0.20650   0.50911686E-03
   0.20750   0.51188708E-03
   0.20850   0.51856902E-03
   0.20950   0.53084624E-03
   0.21050   0.55141468E-03
   0.21150   0.58452331E-03
   0.21250   0.63609867E-03
   0.21350   0.70932816E-03
   0.21450   0.77225664E-03
   0.21550   0.62342477E-03
   0.21650   0.80550024E-04
   0.21750   0.21158415E-03
   0.21850   0.52684970E-03
   0.21950   0.66044077E-03
   0.22050   0.73172804E-03
   0.22150   0.77898160E-03
   0.22250   0.81513741E-03
   0.22350   0.84587949E-03
   0.22450   0.87421812E-03
   0.22550   0.90200914E-03
   0.22650   0.93057763E-03
   0.22750   0.96102507E-03
   0.22850   0.99441595E-03
   0.22950   0.10319260E-02
   0.23050   0.10749951E-02
   0.23150   0.11254947E-02
   0.23250   0.11857313E-02
   0.23350   0.12564872E-02
   0.23450   0.13183274E-02
   0.23550   0.13091337E-02
   0.23650   0.12570726E-02
   0.23750   0.12020506E-02
   0.23850   0.11513080E-02
   0.23950   0.11053669E-02
   0.24050   0.10637138E-02
   0.24150   0.10257483E-02
   0.24250   0.99094724E-03
   0.24350   0.95888041E-03
   0.24450   0.92919724E-03
   0.24550   0.90161001E-03
   0.24650   0.87588019E-03
   0.24750   0.85180812E-03
   0.24850   0.82922494E-03
   0.24950   0.80798659E-03
   0.25050   0.78796939E-03
   0.25150   0.76906639E-03
   0.25250   0.75118465E-03
   0.25350   0.73424302E-03
   0.25450   0.71817037E-03
   0.25550   0.70290390E-03
   0.25650   0.68838807E-03
   0.25750   0.67457336E-03
   0.25850   0.66141516E-03
   0.25950   0.64887351E-03
   0.26050   0.63691172E-03
   0.26150   0.62549638E-03
   0.26250   0.61459671E-03
   0.26350   0.60418400E-03
   0.26450   0.59423177E-03
   0.26550   0.58471505E-03
   0.26650   0.57561079E-03
   0.26750   0.56689722E-03
   0.26850   0.55855419E-03
   0.26950   0.55056281E-03
   0.27050   0.54290571E-03
   0.27150   0.53556671E-03
   0.27250   0.52853103E-03
   0.27350   0.52178506E-03
   0.27450   0.51531621E-03
   0.27550   0.50911319E-03
   0.27650   0.50316541E-03
   0.27750   0.49746322E-03
   0.27850   0.49199769E-03
   0.27950   0.48676040E-03
   0.28050   0.48174354E-03
   0.28150   0.47693949E-03
   0.28250   0.47234099E-03
   0.28350   0.46794087E-03
   0.28450   0.46373202E-03
   0.28550   0.45970711E-03
   0.28650   0.45585851E-03
   0.28750   0.45217769E-03
   0.28850   0.44865461E-03
   0.28950   0.44527647E-03
   0.29050   0.44202528E-03
   0.29150   0.43887342E-03
   0.29250   0.43577500E-03
   0.29350   0.43264742E-03
   0.29450   0.42932952E-03
   0.29550   0.42547533E-03
   0.29650   0.42023946E-03
   0.29750   0.41114990E-03
   0.29850   0.38980882E-03
   0.29950   0.34503921E-03
   0.30050   0.29949436E-03
   0.30150   0.26449907E-03
   0.30250   0.23724779E-03
   0.30350   0.21522962E-03
   0.30450   0.19691406E-03
   0.30550   0.18134307E-03
   0.30650   0.16788364E-03
   0.30750   0.15609701E-03
   0.30850   0.14566709E-03
   0.30950   0.13635888E-03
   0.31050   0.12799333E-03
   0.31150   0.12043124E-03
   0.31250   0.11356259E-03
   0.31350   0.10729938E-03
   0.31450   0.10157051E-03
   0.31550   0.96318130E-04
   0.31650   0.91495036E-04
   0.31750   0.87062632E-04
   0.31850   0.82989514E-04
   0.31950   0.79250291E-04
   0.32050   0.75824755E-04
   0.32150   0.72697207E-04
   0.32250   0.69855938E-04
   0.32350   0.67292836E-04
   0.32450   0.65003085E-04
   0.32550   0.62984902E-04
   0.32650   0.61239378E-04
   0.32750   0.59770278E-04
   0.32850   0.58583959E-04
   0.32950   0.57689191E-04
   0.33050   0.57097033E-04
   0.33150   0.56820652E-04
   0.33250   0.56875055E-04
   0.33350   0.57276746E-04
   0.33450   0.58043213E-04
   0.33550   0.59192189E-04
   0.33650   0.60740600E-04
   0.33750   0.62703089E-04
   0.33850   0.65089946E-04
   0.33950   0.67904293E-04
   0.34050   0.71138304E-04
   0.34150   0.74768235E-04
   0.34250   0.78748133E-04
   0.34350   0.83002153E-04
   0.34450   0.87415858E-04
   0.34550   0.91827300E-04
   0.34650   0.96019772E-04
   0.34750   0.99719597E-04
   0.34850   0.10260391E-03
   0.34950   0.10432508E-03
   0.35050   0.10455825E-03
   0.35150   0.10307458E-03
   0.35250   0.99832811E-04
   0.35350   0.95065683E-04
   0.35450   0.89321140E-04
   0.35550   0.83414903E-04
   0.35650   0.78275763E-04
   0.35750   0.74716423E-04
   0.35850   0.73214149E-04
   0.35950   0.73792005E-04
   0.36050   0.76031298E-04
   0.36150   0.79103418E-04
   0.36250   0.81349004E-04
   0.36350   0.81280559E-04
   0.36450   0.81703707E-04
   0.36550   0.83719249E-04
   0.36650   0.87046996E-04
   0.36750   0.91399714E-04
   0.36850   0.96601740E-04
   0.36950   0.10256172E-03
   0.37050   0.10924767E-03
   0.37150   0.11667291E-03
   0.37250   0.12489042E-03
   0.37350   0.13399344E-03
   0.37450   0.14412215E-03
   0.37550   0.15547761E-03
   0.37650   0.16834654E-03
   0.37750   0.18314349E-03
   0.37850   0.20048163E-03
   0.37950   0.22127453E-03
   0.38050   0.24669990E-03
   0.38150   0.27583630E-03
   0.38250   0.29277592E-03
   0.38350   0.28964278E-03
   0.38450   0.28090391E-03
   0.38550   0.27149037E-03
   0.38650   0.26236431E-03
   0.38750   0.25369978E-03
   0.38850   0.24549762E-03
   0.38950   0.23772224E-03
   0.39050   0.23033626E-03
   0.39150   0.22330889E-03
   0.39250   0.21661697E-03
   0.39350   0.21024400E-03
   0.39450   0.20417874E-03
   0.39550   0.19841376E-03
   0.39650   0.19294435E-03
   0.39750   0.18776736E-03
   0.39850   0.18288051E-03
   0.39950   0.17828160E-03
   0.40050   0.17396794E-03
   0.40150   0.16993590E-03
   0.40250   0.16618033E-03
   0.40350   0.16269417E-03
   0.40450   0.15946776E-03
   0.40550   0.15648817E-03
   0.40650   0.15373774E-03
   0.40750   0.15119193E-03
   0.40850   0.14881493E-03
   0.40950   0.14655059E-03
   0.41050   0.14430145E-03
   0.41150   0.14187304E-03
   0.41250   0.13879851E-03
   0.41350   0.13370512E-03
   0.41450   0.12383939E-03
   0.41550   0.11274487E-03
   0.41650   0.10458988E-03
   0.41750   0.98745986E-04
   0.41850   0.94447656E-04
   0.41950   0.91243011E-04
   0.42050   0.88859881E-04
   0.42150   0.87124296E-04
   0.42250   0.85919324E-04
   0.42350   0.85163396E-04
   0.42450   0.84797983E-04
   0.42550   0.84780309E-04
   0.42650   0.85078645E-04
   0.42750   0.85669184E-04
   0.42850   0.86533793E-04
   0.42950   0.87658242E-04
   0.43050   0.89030662E-04
   0.43150   0.90640031E-04
   0.43250   0.92474380E-04
   0.43350   0.94518524E-04
   0.43450   0.96750780E-04
   0.43550   0.99138073E-04
   0.43650   0.10162815E-03
   0.43750   0.10413681E-03
   0.43850   0.10652659E-03
   0.43950   0.10857031E-03
   0.44050   0.10989070E-03
   0.44150   0.10987260E-03
   0.44250   0.10760954E-03
   0.44350   0.10229280E-03
   0.44450   0.95511874E-04
   0.44550   0.95765921E-04
   0.44650   0.11197003E-03
   0.44750   0.13608935E-03
   0.44850   0.15673679E-03
   0.44950   0.17126139E-03
   0.45050   0.18007308E-03
   0.45150   0.18275589E-03
   0.45250   0.17703506E-03
   0.45350   0.15833417E-03
   0.45450   0.12120489E-03
   0.45550   0.71411378E-04
   0.45650   0.53114363E-04
   0.45750   0.11024793E-03
   0.45850   0.21364314E-03
   0.45950   0.30593658E-03
   0.46050   0.40715595E-03
   0.46150   0.50875667E-03
   0.46250   0.58653823E-03
   0.46350   0.61294902E-03
   0.46450   0.58929861E-03
   0.46550   0.56917052E-03
   0.46650   0.59437478E-03
   0.46750   0.65910112E-03
   0.46850   0.74361393E-03
   0.46950   0.13678772E-02
   0.47050   0.98019990E-03
   0.47150   0.21822065E-01
   0.47250   0.26541697E-02
   0.47350   0.23869034E-02
   0.47450   0.25200280E-02
   0.47550   0.24129974E-02
   0.47650   0.21020786E-02
   0.47750   0.19600075E-02
   0.47850   0.20690686E-02
   0.47950   0.20249456E-02
   0.48050   0.14443023E-02
   0.48150   0.89215289E-03
   0.48250   0.71370136E-03
   0.48350   0.64201647E-03
   0.48450   0.56557707E-03
   0.48550   0.48643269E-03
   0.48650   0.41264037E-03
   0.48750   0.34851153E-03
   0.48850   0.29677831E-03
   0.48950   0.25827956E-03
   0.49050   0.23216217E-03
   0.49150   0.21676115E-03
   0.49250   0.21028200E-03
   0.49350   0.21108637E-03
   0.49450   0.21774712E-03
   0.49550   0.22899477E-03
   0.49650   0.24356401E-03
   0.49750   0.25988257E-03
   0.49850   0.27641657E-03
   0.49950   0.29492180E-03
   0.50050   0.31558785E-03
   0.50150   0.33677311E-03
   0.50250   0.35746742E-03
   0.50350   0.37714912E-03
   0.50450   0.39561981E-03
   0.50550   0.41289159E-03
   0.50650   0.42908831E-03
   0.50750   0.44436744E-03
   0.50850   0.45887538E-03
   0.50950   0.47273890E-03
   0.51050   0.48608499E-03
   0.51150   0.49907563E-03
   0.51250   0.51194330E-03
   0.51350   0.52501750E-03
   0.51450   0.53873990E-03
   0.51550   0.55367459E-03
   0.51650   0.57051901E-03
   0.51750   0.59010729E-03
   0.51850   0.61327533E-03
   0.51950   0.63964375E-03
   0.52050   0.65861118E-03
   0.52150   0.63533749E-03
   0.52250   0.58736303E-03
   0.52350   0.54290105E-03
   0.52450   0.50504773E-03
   0.52550   0.47276317E-03
   0.52650   0.44491419E-03
   0.52750   0.42064162E-03
   0.52850   0.39931267E-03
   0.52950   0.38042990E-03
   0.53050   0.36349465E-03
   0.53150   0.34764135E-03
   0.53250   0.33023249E-03
   0.53350   0.30570550E-03
   0.53450   0.28067312E-03
   0.53550   0.26238497E-03
   0.53650   0.25018878E-03
   0.53750   0.24321312E-03
   0.53850   0.24111534E-03
   0.53950   0.24387144E-03
   0.54050   0.25158763E-03
   0.54150   0.26431368E-03
   0.54250   0.28182150E-03
   0.54350   0.30337615E-03
   0.54450   0.32764007E-03
   0.54550   0.35294186E-03
   0.54650   0.37793175E-03
   0.54750   0.40196860E-03
   0.54850   0.42433015E-03
   0.54950   0.44287462E-03
   0.55050   0.45427115E-03
   0.55150   0.45602830E-03
   0.55250   0.44801147E-03
   0.55350   0.43214051E-03
   0.55450   0.41114303E-03
   0.55550   0.38753735E-03
   0.55650   0.36320023E-03
   0.55750   0.33934356E-03
   0.55850   0.31665721E-03
   0.55950   0.29547449E-03
   0.56050   0.27590591E-03
   0.56150   0.25793246E-03
   0.56250   0.24146560E-03
   0.56350   0.22638362E-03
   0.56450   0.21255316E-03
   0.56550   0.19984104E-03
   0.56650   0.18812055E-03
   0.56750   0.17727437E-03
   0.56850   0.16719553E-03
   0.56950   0.15778741E-03
   0.57050   0.14896299E-03
   0.57150   0.14064400E-03
   0.57250   0.13275977E-03
   0.57350   0.12524636E-03
   0.57450   0.11804556E-03
   0.57550   0.11110432E-03
   0.57650   0.10437439E-03
   0.57750   0.97812437E-04
   0.57850   0.91380782E-04
   0.57950   0.85049163E-04
   0.58050   0.78797893E-04
   0.58150   0.72623341E-04
   0.58250   0.66546992E-04
   0.58350   0.60630329E-04
   0.58450   0.54998723E-04
   0.58550   0.49879785E-04
   0.58650   0.45663466E-04
   0.58750   0.42993288E-04
   0.58850   0.42895561E-04
   0.58950   0.46936479E-04
   0.59050   0.57342568E-04
   0.59150   0.76896024E-04
   0.59250   0.10824484E-03
   0.59350   0.15231203E-03
   0.59450   0.20631752E-03
   0.59550   0.26333972E-03
   0.59650   0.31494771E-03
   0.59750   0.35517913E-03
   0.59850   0.38249718E-03
   0.59950   0.39884707E-03
   0.60050   0.40756341E-03
   0.60150   0.41183070E-03
   0.60250   0.41408447E-03
   0.60350   0.41599671E-03
   0.60450   0.41866739E-03
   0.60550   0.42282979E-03
   0.60650   0.42901159E-03
   0.60750   0.43764952E-03
   0.60850   0.44917202E-03
   0.60950   0.46406541E-03
   0.61050   0.48293770E-03
   0.61150   0.50659396E-03
   0.61250   0.53613930E-03
   0.61350   0.57313120E-03
   0.61450   0.61979657E-03
   0.61550   0.67922473E-03
   0.61650   0.75446378E-03
   0.61750   0.83656143E-03
   0.61850   0.85252471E-03
   0.61950   0.78386004E-03
   0.62050   0.70637680E-03
   0.62150   0.63749420E-03
   0.62250   0.57676522E-03
   0.62350   0.52440993E-03
   0.62450   0.48095320E-03
   0.62550   0.44918174E-03
   0.62650   0.44723952E-03
   0.62750   0.47741455E-03
   0.62850   0.45391053E-03
   0.62950   0.41267154E-03
   0.63050   0.37916712E-03
   0.63150   0.35211907E-03
   0.63250   0.32880396E-03
   0.63350   0.30690269E-03
   0.63450   0.28282439E-03
   0.63550   0.24517396E-03
   0.63650   0.20008517E-03
   0.63750   0.26031624E-03
   0.63850   0.26236774E-03
   0.63950   0.25413415E-03
   0.64050   0.24541188E-03
   0.64150   0.23733205E-03
   0.64250   0.23010565E-03
   0.64350   0.22402981E-03
   0.64450   0.22018123E-03
   0.64550   0.22311680E-03
   0.64650   0.25630629E-03
   0.64750   0.21712536E-03
   0.64850   0.18761141E-03
   0.64950   0.17388024E-03
   0.65050   0.16871460E-03
   0.65150   0.19439314E-03
   0.65250   0.11188822E-02
   0.65350   0.19381304E-02
   0.65450   0.18585978E-01
   0.65550   0.10581709E-01
   0.65650   0.62261070E-02
   0.65750   0.37739337E-02
   0.65850   0.27443308E-02
   0.65950   0.22203973E-02
   0.66050   0.18886508E-02
   0.66150   0.16502938E-02
   0.66250   0.14710994E-02
   0.66350   0.13442503E-02
   0.66450   0.12553594E-02
   0.66550   0.11929759E-02
   0.66650   0.11495344E-02
   0.66750   0.11196028E-02
   0.66850   0.10996393E-02
   0.66950   0.10864818E-02
   0.67050   0.10763964E-02
   0.67150   0.10657524E-02
   0.67250   0.10523422E-02
   0.67350   0.10361380E-02
   0.67450   0.10188323E-02
   0.67550   0.10025073E-02
   0.67650   0.98847016E-03
   0.67750   0.97701652E-03
   0.67850   0.96804328E-03
   0.67950   0.96185360E-03
   0.68050   0.95949479E-03
   0.68150   0.96244557E-03
   0.68250   0.97194989E-03
   0.68350   0.98836457E-03
   0.68450   0.10104807E-02
   0.68550   0.10334543E-02
   0.68650   0.10378649E-02
   0.68750   0.96779864E-03
   0.68850   0.85206947E-03
   0.68950   0.75840880E-03
   0.69050   0.68755809E-03
   0.69150   0.63221453E-03
   0.69250   0.58737886E-03
   0.69350   0.54997014E-03
   0.69450   0.51812531E-03
   0.69550   0.49073191E-03
   0.69650   0.46712192E-03
   0.69750   0.44687834E-03
   0.69850   0.42973214E-03
   0.69950   0.41553107E-03
   0.70050   0.40426358E-03
   0.70150   0.39612793E-03
   0.70250   0.39165397E-03
   0.70350   0.39188471E-03
   0.70450   0.39812500E-03
   0.70550   0.40552678E-03
   0.70650   0.40026064E-03
   0.70750   0.38824003E-03
   0.70850   0.37520679E-03
   0.70950   0.36256918E-03
   0.71050   0.35063960E-03
   0.71150   0.33945113E-03
   0.71250   0.32896653E-03
   0.71350   0.31914294E-03
   0.71450   0.30995099E-03
   0.71550   0.30137567E-03
   0.71650   0.29340963E-03
   0.71750   0.28604513E-03
   0.71850   0.27926787E-03
   0.71950   0.27305435E-03
   0.72050   0.26737305E-03
   0.72150   0.26218806E-03
   0.72250   0.25746401E-03
   0.72350   0.25317073E-03
   0.72450   0.24928656E-03
   0.72550   0.24579981E-03
   0.72650   0.24270877E-03
   0.72750   0.24002105E-03
   0.72850   0.23775343E-03
   0.72950   0.23593465E-03
   0.73050   0.23461363E-03
   0.73150   0.23386562E-03
   0.73250   0.23363541E-03
   0.73350   0.23349475E-03
   0.73450   0.23351103E-03
   0.73550   0.23383976E-03
   0.73650   0.23452198E-03
   0.73750   0.23557138E-03
   0.73850   0.23699643E-03
   0.73950   0.23880388E-03
   0.74050   0.24099762E-03
   0.74150   0.24357693E-03
   0.74250   0.24653494E-03
   0.74350   0.24985767E-03
   0.74450   0.25352387E-03
   0.74550   0.25750569E-03
   0.74650   0.26176978E-03
   0.74750   0.26627880E-03
   0.74850   0.27099310E-03
   0.74950   0.27587221E-03
   0.75050   0.28087638E-03
   0.75150   0.28596778E-03
   0.75250   0.29111200E-03
   0.75350   0.29627938E-03
   0.75450   0.30144685E-03
   0.75550   0.30660004E-03
   0.75650   0.31173602E-03
   0.75750   0.31686676E-03
   0.75850   0.32202320E-03
   0.75950   0.32726041E-03
   0.76050   0.33266397E-03
   0.76150   0.33835834E-03
   0.76250   0.34451889E-03
   0.76350   0.35139083E-03
   0.76450   0.35932567E-03
   0.76550   0.36887336E-03
   0.76650   0.38111251E-03
   0.76750   0.39944303E-03
   0.76850   0.44728178E-03
   0.76950   0.22159542E-02
   0.77050   0.87045674E-03
   0.77150   0.70749241E-03
   0.77250   0.75357326E-03
   0.77350   0.88257861E-03
   0.77450   0.11256175E-02
   0.77550   0.16162712E-02
   0.77650   0.25866686E-02
   0.77750   0.30285832E-02
   0.77850   0.22511256E-02
   0.77950   0.96313516E-02
   0.78050   0.45401905E-01
   0.78150   0.79757564E-01
   0.78250   0.60877074E-01
   0.78350   0.75942814E-01
   0.78450   0.71393900E-01
   0.78550   0.48255160E-01
   0.78650   0.36005039E-01
   0.78750   0.26030364E-01
   0.78850   0.19406637E-01
   0.78950   0.15761308E-01
   0.79050   0.13391967E-01
   0.79150   0.11626588E-01
   0.79250   0.10388425E-01
   0.79350   0.94154729E-02
   0.79450   0.85167503E-02
   0.79550   0.77492748E-02
   0.79650   0.71446346E-02
   0.79750   0.66511468E-02
   0.79850   0.62232637E-02
   0.79950   0.58431751E-02
   0.80050   0.54990523E-02
   0.80150   0.51801279E-02
   0.80250   0.48837424E-02
   0.80350   0.46144151E-02
   0.80450   0.43766485E-02
   0.80550   0.41714460E-02
   0.80650   0.39976859E-02
   0.80750   0.38538312E-02
   0.80850   0.37381751E-02
   0.80950   0.36491074E-02
   0.81050   0.35860259E-02
   0.81150   0.35495888E-02
   0.81250   0.35405131E-02
   0.81350   0.35579058E-02
   0.81450   0.35985471E-02
   0.81550   0.36575990E-02
   0.81650   0.37301471E-02
   0.81750   0.38124574E-02
   0.81850   0.39021184E-02
   0.81950   0.39971527E-02
   0.82050   0.40949606E-02
   0.82150   0.41920072E-02
   0.82250   0.42845490E-02
   0.82350   0.43698135E-02
   0.82450   0.44463836E-02
   0.82550   0.45126635E-02
   0.82650   0.45707757E-02
   0.82750   0.46320446E-02
   0.82850   0.46974528E-02
   0.82950   0.47643939E-02
   0.83050   0.48309271E-02
   0.83150   0.48966557E-02
   0.83250   0.49632164E-02
   0.83350   0.50340034E-02
   0.83450   0.51132273E-02
   0.83550   0.52048126E-02
   0.83650   0.53116316E-02
   0.83750   0.54352893E-02
   0.83850   0.55764080E-02
   0.83950   0.57350988E-02
   0.84050   0.59108054E-02
   0.84150   0.60983147E-02
   0.84250   0.62617175E-02
   0.84350   0.62673190E-02
   0.84450   0.61480748E-02
   0.84550   0.60576950E-02
   0.84650   0.60129631E-02
   0.84750   0.60014855E-02
   0.84850   0.60065817E-02
   0.84950   0.60317414E-02
   0.85050   0.60789837E-02
   0.85150   0.61440617E-02
   0.85250   0.62232013E-02
   0.85350   0.63136914E-02
   0.85450   0.64137471E-02
   0.85550   0.65224096E-02
   0.85650   0.66394992E-02
   0.85750   0.67655924E-02
   0.85850   0.69020060E-02
   0.85950   0.70508141E-02
   0.86050   0.72149215E-02
   0.86150   0.73982463E-02
   0.86250   0.76060826E-02
   0.86350   0.78457398E-02
   0.86450   0.81276605E-02
   0.86550   0.84674703E-02
   0.86650   0.88902013E-02
   0.86750   0.94415275E-02
   0.86850   0.10240998E-01
   0.86950   0.12680713E-01
   0.87050   0.30014165E-01
   0.87150   0.13865109E-01
   0.87250   0.16838737E-01
   0.87350   0.27657699E-01
   0.87450   0.10356739E+00
   0.87550   0.82889907E-01
   0.87650   0.70435248E-01
   0.87750   0.79303868E-01
   0.87850   0.10572422E+00
   0.87950   0.15671758E+00
   0.88050   0.20889504E+00
   0.88150   0.20535706E+00
   0.88250   0.19224706E+00
   0.88350   0.21495253E+00
   0.88450   0.21997584E+00
   0.88550   0.21201526E+00
   0.88650   0.20860784E+00
   0.88750   0.20517668E+00
   0.88850   0.19826484E+00
   0.88950   0.18303154E+00
   0.89050   0.15939817E+00
   0.89150   0.13560194E+00
   0.89250   0.11904023E+00
   0.89350   0.10803556E+00
   0.89450   0.99746674E-01
   0.89550   0.93257554E-01
   0.89650   0.88891327E-01
   0.89750   0.86679898E-01
   0.89850   0.86044386E-01
   0.89950   0.86160302E-01
   0.90050   0.86429581E-01
   0.90150   0.86611658E-01
   0.90250   0.86341344E-01
   0.90350   0.85603051E-01
   0.90450   0.84523991E-01
   0.90550   0.83310574E-01
   0.90650   0.82233071E-01
   0.90750   0.81542812E-01
   0.90850   0.81413232E-01
   0.90950   0.81869066E-01
   0.91050   0.82757607E-01
   0.91150   0.83815321E-01
   0.91250   0.84809534E-01
   0.91350   0.85657090E-01
   0.91450   0.86422242E-01
   0.91550   0.87225616E-01
   0.91650   0.88169731E-01
   0.91750   0.89320377E-01
   0.91850   0.90716697E-01
   0.91950   0.92382096E-01
   0.92050   0.94329163E-01
   0.92150   0.96562073E-01
   0.92250   0.99079490E-01
   0.92350   0.10187774E+00
   0.92450   0.10495284E+00
   0.92550   0.10830099E+00
   0.92650   0.11191857E+00
   0.92750   0.11580348E+00
   0.92850   0.11995951E+00
   0.92950   0.12440240E+00
   0.93050   0.12916376E+00
   0.93150   0.13428824E+00
   0.93250   0.13982293E+00
   0.93350   0.14580083E+00
   0.93450   0.15222098E+00
   0.93550   0.15903166E+00
   0.93650   0.16613200E+00
   0.93750   0.17341222E+00
   0.93850   0.18082812E+00
   0.93950   0.18850939E+00
   0.94050   0.19873405E+00
   0.94150   0.21125156E+00
   0.94250   0.21775632E+00
   0.94350   0.22767924E+00
   0.94450   0.23703128E+00
   0.94550   0.23947191E+00
   0.94650   0.24245955E+00
   0.94750   0.25608131E+00
   0.94850   0.27260113E+00
   0.94950   0.28885552E+00
   0.95050   0.30270866E+00
   0.95150   0.31019408E+00
   0.95250   0.31410539E+00
   0.95350   0.32118720E+00
   0.95450   0.33218566E+00
   0.95550   0.34580556E+00
   0.95650   0.36054662E+00
   0.95750   0.37579119E+00
   0.95850   0.39280945E+00
   0.95950   0.41298157E+00
   0.96050   0.43729717E+00
   0.96150   0.46603885E+00
   0.96250   0.49855623E+00
   0.96350   0.53440452E+00
   0.96450   0.57491380E+00
   0.96550   0.62098730E+00
   0.96650   0.66884857E+00
   0.96750   0.70964545E+00
   0.96850   0.73704147E+00
   0.96950   0.75323600E+00
   0.97050   0.76325953E+00
   0.97150   0.76862735E+00
   0.97250   0.76754773E+00
   0.97350   0.75737596E+00
   0.97450   0.73586577E+00
   0.97550   0.70386618E+00
   0.97650   0.67070282E+00
   0.97750   0.64666933E+00
   0.97850   0.63250518E+00
   0.97950   0.62537056E+00
   0.98050   0.62203938E+00
   0.98150   0.61846912E+00
   0.98250   0.61228526E+00
   0.98350   0.60463315E+00
   0.98450   0.59783894E+00
   0.98550   0.59276116E+00
   0.98650   0.59095502E+00
   0.98750   0.59509504E+00
   0.98850   0.60252702E+00
   0.98950   0.61288148E+00
   0.99050   0.63848335E+00
   0.99150   0.67993808E+00
   0.99250   0.71990913E+00
   0.99350   0.73898321E+00
   0.99450   0.74035591E+00
   0.99550   0.73593515E+00
   0.99650   0.73139340E+00
   0.99750   0.72810256E+00
   0.99850   0.72605497E+00
   0.99950   0.72481072E+00
