# Transmission, k-averaged
# Date: 2021-05-13
#   E [eV]           T [G0]
   0.00050   0.41468025E-03
   0.00150   0.80879852E-02
   0.00250   0.10785781E-01
   0.00350   0.52291839E-02
   0.00450   0.20153916E-02
   0.00550   0.11633094E-02
   0.00650   0.16551522E-02
   0.00750   0.89232280E-03
   0.00850   0.12400510E-02
   0.00950   0.12826555E-02
   0.01050   0.90651907E-03
   0.01150   0.18547823E-02
   0.01250   0.18699862E-02
   0.01350   0.12114287E-02
   0.01450   0.20336038E-02
   0.01550   0.53564645E-02
   0.01650   0.25982843E-02
   0.01750   0.19535930E-02
   0.01850   0.38447301E-02
   0.01950   0.17720113E-01
   0.02050   0.55518080E-02
   0.02150   0.28900432E-02
   0.02250   0.38865609E-02
   0.02350   0.17858516E-01
   0.02450   0.20301389E-01
   0.02550   0.40953052E-02
   0.02650   0.27770563E-02
   0.02750   0.42257821E-02
   0.02850   0.15154838E-01
   0.02950   0.61075059E-02
   0.03050   0.17413400E-02
   0.03150   0.10078698E-02
   0.03250   0.88375947E-03
   0.03350   0.82503055E-03
   0.03450   0.46665396E-03
   0.03550   0.18515531E-03
   0.03650   0.74596792E-04
   0.03750   0.30370520E-04
   0.03850   0.10865041E-04
   0.03950   0.30158512E-05
   0.04050   0.68722841E-06
   0.04150   0.30205092E-06
   0.04250   0.73941987E-06
   0.04350   0.31380612E-05
   0.04450   0.11684940E-04
   0.04550   0.34703749E-04
   0.04650   0.75447868E-04
   0.04750   0.13237081E-03
   0.04850   0.20624977E-03
   0.04950   0.30400572E-03
   0.05050   0.43986560E-03
   0.05150   0.63104945E-03
   0.05250   0.88371930E-03
   0.05350   0.11705777E-02
   0.05450   0.14348337E-02
   0.05550   0.16469985E-02
   0.05650   0.18402978E-02
   0.05750   0.20801441E-02
   0.05850   0.24311584E-02
   0.05950   0.29446618E-02
   0.06050   0.36338095E-02
   0.06150   0.44158949E-02
   0.06250   0.50879340E-02
   0.06350   0.54707611E-02
   0.06450   0.55999351E-02
   0.06550   0.56704604E-02
   0.06650   0.58674598E-02
   0.06750   0.63086515E-02
   0.06850   0.70552281E-02
   0.06950   0.80951713E-02
   0.07050   0.92718042E-02
   0.07150   0.10243136E-01
   0.07250   0.10665074E-01
   0.07350   0.10517588E-01
   0.07450   0.10109402E-01
   0.07550   0.97826635E-02
   0.07650   0.97464183E-02
   0.07750   0.10092059E-01
   0.07850   0.10829072E-01
   0.07950   0.11857321E-01
   0.08050   0.12888097E-01
   0.08150   0.13459232E-01
   0.08250   0.13239607E-01
   0.08350   0.12373682E-01
   0.08450   0.11337264E-01
   0.08550   0.10544509E-01
   0.08650   0.10214227E-01
   0.08750   0.10444612E-01
   0.08850   0.11273230E-01
   0.08950   0.12606162E-01
   0.09050   0.13989809E-01
   0.09150   0.14524949E-01
   0.09250   0.13656911E-01
   0.09350   0.12722476E-01
   0.09450   0.12794017E-01
   0.09550   0.14009206E-01
   0.09650   0.16308697E-01
   0.09750   0.19357821E-01
   0.09850   0.22417858E-01
   0.09950   0.24745602E-01
   0.10050   0.26218463E-01
   0.10150   0.27246146E-01
   0.10250   0.28223703E-01
   0.10350   0.29263457E-01
   0.10450   0.30240627E-01
   0.10550   0.30947698E-01
   0.10650   0.31242497E-01
   0.10750   0.31118505E-01
   0.10850   0.30676959E-01
   0.10950   0.30051274E-01
   0.11050   0.29347766E-01
   0.11150   0.28625714E-01
   0.11250   0.27905252E-01
   0.11350   0.27185010E-01
   0.11450   0.26457978E-01
   0.11550   0.25721109E-01
   0.11650   0.24978383E-01
   0.11750   0.24239240E-01
   0.11850   0.23514967E-01
   0.11950   0.22815242E-01
   0.12050   0.22146044E-01
   0.12150   0.21509169E-01
   0.12250   0.20903001E-01
   0.12350   0.20323919E-01
   0.12450   0.19767830E-01
   0.12550   0.19231366E-01
   0.12650   0.18712576E-01
   0.12750   0.18211056E-01
   0.12850   0.17727604E-01
   0.12950   0.17263645E-01
   0.13050   0.16820580E-01
   0.13150   0.16399268E-01
   0.13250   0.15999714E-01
   0.13350   0.15621017E-01
   0.13450   0.15261506E-01
   0.13550   0.14919038E-01
   0.13650   0.14591359E-01
   0.13750   0.14276435E-01
   0.13850   0.13972720E-01
   0.13950   0.13679296E-01
   0.14050   0.13395875E-01
   0.14150   0.13122696E-01
   0.14250   0.12860329E-01
   0.14350   0.12609444E-01
   0.14450   0.12370597E-01
   0.14550   0.12144064E-01
   0.14650   0.11929738E-01
   0.14750   0.11727115E-01
   0.14850   0.11535344E-01
   0.14950   0.11353337E-01
   0.15050   0.11179917E-01
   0.15150   0.11013960E-01
   0.15250   0.10854537E-01
   0.15350   0.10701009E-01
   0.15450   0.10553070E-01
   0.15550   0.10410740E-01
   0.15650   0.10274303E-01
   0.15750   0.10144209E-01
   0.15850   0.10020960E-01
   0.15950   0.99049872E-02
   0.16050   0.97965486E-02
   0.16150   0.96956613E-02
   0.16250   0.96020568E-02
   0.16350   0.95151886E-02
   0.16450   0.94342558E-02
   0.16550   0.93582533E-02
   0.16650   0.92860255E-02
   0.16750   0.92162807E-02
   0.16850   0.91475388E-02
   0.16950   0.90779215E-02
   0.17050   0.90046320E-02
   0.17150   0.89226896E-02
   0.17250   0.88217128E-02
   0.17350   0.86763809E-02
   0.17450   0.84124263E-02
   0.17550   0.78144521E-02
   0.17650   0.68850587E-02
   0.17750   0.61094845E-02
   0.17850   0.55285338E-02
   0.17950   0.50762054E-02
   0.18050   0.47104503E-02
   0.18150   0.44063483E-02
   0.18250   0.41482723E-02
   0.18350   0.39258390E-02
   0.18450   0.37318158E-02
   0.18550   0.35609745E-02
   0.18650   0.34094153E-02
   0.18750   0.32741544E-02
   0.18850   0.31528573E-02
   0.18950   0.30436593E-02
   0.19050   0.29450415E-02
   0.19150   0.28557454E-02
   0.19250   0.27747082E-02
   0.19350   0.27010187E-02
   0.19450   0.26338822E-02
   0.19550   0.25725963E-02
   0.19650   0.25165302E-02
   0.19750   0.24651105E-02
   0.19850   0.24178056E-02
   0.19950   0.23741133E-02
   0.20050   0.23335447E-02
   0.20150   0.22956030E-02
   0.20250   0.22597574E-02
   0.20350   0.22254009E-02
   0.20450   0.21917881E-02
   0.20550   0.21579373E-02
   0.20650   0.21224716E-02
   0.20750   0.20833509E-02
   0.20850   0.20374029E-02
   0.20950   0.19794716E-02
   0.21050   0.19008023E-02
   0.21150   0.17859150E-02
   0.21250   0.16066656E-02
   0.21350   0.13132796E-02
   0.21450   0.84029930E-03
   0.21550   0.25024553E-03
   0.21650   0.24666335E-05
   0.21750   0.14877594E-04
   0.21850   0.12776132E-03
   0.21950   0.24118282E-03
   0.22050   0.33229042E-03
   0.22150   0.40812933E-03
   0.22250   0.47388172E-03
   0.22350   0.53290487E-03
   0.22450   0.58753026E-03
   0.22550   0.63951412E-03
   0.22650   0.69029519E-03
   0.22750   0.74116193E-03
   0.22850   0.79338293E-03
   0.22950   0.84833131E-03
   0.23050   0.90763008E-03
   0.23150   0.97332231E-03
   0.23250   0.10479109E-02
   0.23350   0.11326320E-02
   0.23450   0.12102578E-02
   0.23550   0.12226431E-02
   0.23650   0.11931413E-02
   0.23750   0.11583111E-02
   0.23850   0.11253037E-02
   0.23950   0.10950066E-02
   0.24050   0.10672576E-02
   0.24150   0.10417444E-02
   0.24250   0.10181766E-02
   0.24350   0.99631341E-03
   0.24450   0.97595982E-03
   0.24550   0.95695740E-03
   0.24650   0.93917636E-03
   0.24750   0.92250929E-03
   0.24850   0.90686604E-03
   0.24950   0.89217070E-03
   0.25050   0.87835843E-03
   0.25150   0.86537411E-03
   0.25250   0.85317023E-03
   0.25350   0.84170629E-03
   0.25450   0.83094719E-03
   0.25550   0.82086294E-03
   0.25650   0.81142748E-03
   0.25750   0.80261834E-03
   0.25850   0.79441600E-03
   0.25950   0.78680337E-03
   0.26050   0.77976543E-03
   0.26150   0.77328872E-03
   0.26250   0.76736149E-03
   0.26350   0.76197303E-03
   0.26450   0.75711391E-03
   0.26550   0.75277581E-03
   0.26650   0.74895134E-03
   0.26750   0.74563432E-03
   0.26850   0.74281980E-03
   0.26950   0.74050401E-03
   0.27050   0.73868455E-03
   0.27150   0.73736056E-03
   0.27250   0.73653250E-03
   0.27350   0.73620258E-03
   0.27450   0.73637458E-03
   0.27550   0.73705387E-03
   0.27650   0.73824741E-03
   0.27750   0.73996373E-03
   0.27850   0.74221299E-03
   0.27950   0.74500660E-03
   0.28050   0.74835768E-03
   0.28150   0.75228035E-03
   0.28250   0.75679028E-03
   0.28350   0.76190429E-03
   0.28450   0.76764013E-03
   0.28550   0.77401672E-03
   0.28650   0.78105321E-03
   0.28750   0.78876870E-03
   0.28850   0.79718075E-03
   0.28950   0.80630276E-03
   0.29050   0.81613945E-03
   0.29150   0.82667707E-03
   0.29250   0.83786517E-03
   0.29350   0.84957608E-03
   0.29450   0.86151273E-03
   0.29550   0.87297190E-03
   0.29650   0.88213827E-03
   0.29750   0.88353665E-03
   0.29850   0.85814565E-03
   0.29950   0.77876245E-03
   0.30050   0.69347618E-03
   0.30150   0.62865752E-03
   0.30250   0.57914207E-03
   0.30350   0.53991936E-03
   0.30450   0.50792517E-03
   0.30550   0.48124974E-03
   0.30650   0.45863827E-03
   0.30750   0.43922532E-03
   0.30850   0.42238936E-03
   0.30950   0.40766917E-03
   0.31050   0.39471273E-03
   0.31150   0.38324491E-03
   0.31250   0.37304638E-03
   0.31350   0.36393889E-03
   0.31450   0.35577524E-03
   0.31550   0.34843181E-03
   0.31650   0.34180342E-03
   0.31750   0.33579895E-03
   0.31850   0.33033849E-03
   0.31950   0.32535079E-03
   0.32050   0.32077145E-03
   0.32150   0.31654112E-03
   0.32250   0.31260445E-03
   0.32350   0.30890887E-03
   0.32450   0.30540361E-03
   0.32550   0.30203891E-03
   0.32650   0.29876528E-03
   0.32750   0.29553269E-03
   0.32850   0.29229000E-03
   0.32950   0.28898427E-03
   0.33050   0.28556006E-03
   0.33150   0.28195896E-03
   0.33250   0.27811888E-03
   0.33350   0.27397359E-03
   0.33450   0.26945237E-03
   0.33550   0.26447955E-03
   0.33650   0.25897461E-03
   0.33750   0.25285259E-03
   0.33850   0.24602489E-03
   0.33950   0.23840112E-03
   0.34050   0.22989193E-03
   0.34150   0.22041361E-03
   0.34250   0.20989467E-03
   0.34350   0.19828498E-03
   0.34450   0.18556805E-03
   0.34550   0.17177645E-03
   0.34650   0.15700974E-03
   0.34750   0.14145314E-03
   0.34850   0.12539332E-03
   0.34950   0.10922489E-03
   0.35050   0.93440627E-04
   0.35150   0.78597412E-04
   0.35250   0.65256405E-04
   0.35350   0.53906366E-04
   0.35450   0.44893572E-04
   0.35550   0.38389582E-04
   0.35650   0.34417408E-04
   0.35750   0.32923650E-04
   0.35850   0.33844139E-04
   0.35950   0.37084046E-04
   0.36050   0.42294119E-04
   0.36150   0.48057653E-04
   0.36250   0.49454233E-04
   0.36350   0.43853321E-04
   0.36450   0.40082978E-04
   0.36550   0.39290215E-04
   0.36650   0.40403316E-04
   0.36750   0.42846623E-04
   0.36850   0.46362005E-04
   0.36950   0.50850394E-04
   0.37050   0.56301549E-04
   0.37150   0.62764397E-04
   0.37250   0.70336187E-04
   0.37350   0.79162244E-04
   0.37450   0.89443602E-04
   0.37550   0.10145341E-03
   0.37650   0.11556562E-03
   0.37750   0.13230363E-03
   0.37850   0.15242255E-03
   0.37950   0.17703633E-03
   0.38050   0.20765814E-03
   0.38150   0.24418064E-03
   0.38250   0.27247213E-03
   0.38350   0.28332250E-03
   0.38450   0.28868779E-03
   0.38550   0.29297097E-03
   0.38650   0.29707706E-03
   0.38750   0.30118012E-03
   0.38850   0.30527901E-03
   0.38950   0.30932701E-03
   0.39050   0.31326755E-03
   0.39150   0.31704514E-03
   0.39250   0.32060858E-03
   0.39350   0.32391178E-03
   0.39450   0.32691384E-03
   0.39550   0.32957882E-03
   0.39650   0.33187549E-03
   0.39750   0.33377719E-03
   0.39850   0.33526146E-03
   0.39950   0.33630981E-03
   0.40050   0.33690745E-03
   0.40150   0.33704285E-03
   0.40250   0.33670705E-03
   0.40350   0.33589304E-03
   0.40450   0.33459449E-03
   0.40550   0.33280379E-03
   0.40650   0.33050921E-03
   0.40750   0.32768966E-03
   0.40850   0.32430512E-03
   0.40950   0.32027686E-03
   0.41050   0.31544277E-03
   0.41150   0.30943929E-03
   0.41250   0.30133076E-03
   0.41350   0.28827463E-03
   0.41450   0.26459282E-03
   0.41550   0.23816324E-03
   0.41650   0.21794786E-03
   0.41750   0.20256847E-03
   0.41850   0.19036916E-03
   0.41950   0.18037271E-03
   0.42050   0.17198839E-03
   0.42150   0.16483535E-03
   0.42250   0.15865355E-03
   0.42350   0.15325675E-03
   0.42450   0.14850599E-03
   0.42550   0.14429358E-03
   0.42650   0.14053300E-03
   0.42750   0.13715199E-03
   0.42850   0.13408752E-03
   0.42950   0.13128194E-03
   0.43050   0.12867947E-03
   0.43150   0.12622293E-03
   0.43250   0.12385000E-03
   0.43350   0.12148862E-03
   0.43450   0.11905096E-03
   0.43550   0.11642474E-03
   0.43650   0.11346039E-03
   0.43750   0.10995166E-03
   0.43850   0.10560590E-03
   0.43950   0.10000018E-03
   0.44050   0.92525341E-04
   0.44150   0.82358827E-04
   0.44250   0.68682370E-04
   0.44350   0.52005100E-04
   0.44450   0.38598359E-04
   0.44550   0.44620167E-04
   0.44650   0.76237964E-04
   0.44750   0.11041313E-03
   0.44850   0.13098844E-03
   0.44950   0.13925684E-03
   0.45050   0.13934192E-03
   0.45150   0.13320637E-03
   0.45250   0.12073952E-03
   0.45350   0.10036938E-03
   0.45450   0.70735914E-04
   0.45550   0.37995585E-04
   0.45650   0.27534415E-04
   0.45750   0.56951267E-04
   0.45850   0.12636062E-03
   0.45950   0.13084635E-03
   0.46050   0.16304637E-03
   0.46150   0.20214698E-03
   0.46250   0.24890812E-03
   0.46350   0.29428894E-03
   0.46450   0.32031978E-03
   0.46550   0.32880722E-03
   0.46650   0.33959921E-03
   0.46750   0.36127024E-03
   0.46850   0.39836470E-03
   0.46950   0.20626318E-02
   0.47050   0.86051412E-03
   0.47150   0.45117825E-01
   0.47250   0.41247937E-02
   0.47350   0.49356185E-03
   0.47450   0.13319959E-02
   0.47550   0.12808928E-02
   0.47650   0.11382268E-02
   0.47750   0.95833745E-03
   0.47850   0.81878575E-03
   0.47950   0.10562217E-02
   0.48050   0.16626450E-02
   0.48150   0.18159489E-02
   0.48250   0.14116404E-02
   0.48350   0.93742192E-03
   0.48450   0.61153842E-03
   0.48550   0.41087286E-03
   0.48650   0.28522071E-03
   0.48750   0.20482537E-03
   0.48850   0.15376453E-03
   0.48950   0.12240639E-03
   0.49050   0.10416286E-03
   0.49150   0.94343734E-04
   0.49250   0.89655281E-04
   0.49350   0.87878630E-04
   0.49450   0.87611486E-04
   0.49550   0.88027075E-04
   0.49650   0.88626926E-04
   0.49750   0.88955232E-04
   0.49850   0.88528694E-04
   0.49950   0.88226137E-04
   0.50050   0.88626723E-04
   0.50150   0.89467816E-04
   0.50250   0.90637375E-04
   0.50350   0.92130998E-04
   0.50450   0.93984614E-04
   0.50550   0.96244316E-04
   0.50650   0.98951386E-04
   0.50750   0.10213521E-03
   0.50850   0.10581204E-03
   0.50950   0.10998877E-03
   0.51050   0.11467109E-03
   0.51150   0.11987464E-03
   0.51250   0.12563795E-03
   0.51350   0.13203552E-03
   0.51450   0.13919118E-03
   0.51550   0.14729306E-03
   0.51650   0.15661355E-03
   0.51750   0.16753582E-03
   0.51850   0.18055728E-03
   0.51950   0.19597127E-03
   0.52050   0.21068138E-03
   0.52150   0.21073999E-03
   0.52250   0.19920217E-03
   0.52350   0.18685051E-03
   0.52450   0.17564894E-03
   0.52550   0.16563669E-03
   0.52650   0.15662497E-03
   0.52750   0.14842648E-03
   0.52850   0.14087150E-03
   0.52950   0.13378123E-03
   0.53050   0.12690388E-03
   0.53150   0.11974107E-03
   0.53250   0.11104743E-03
   0.53350   0.99594836E-04
   0.53450   0.89810099E-04
   0.53550   0.83358354E-04
   0.53650   0.79222693E-04
   0.53750   0.76955541E-04
   0.53850   0.76584518E-04
   0.53950   0.78489080E-04
   0.54050   0.83395396E-04
   0.54150   0.92403141E-04
   0.54250   0.10694277E-03
   0.54350   0.12848359E-03
   0.54450   0.15772437E-03
   0.54550   0.19312087E-03
   0.54650   0.22934999E-03
   0.54750   0.25756314E-03
   0.54850   0.26909937E-03
   0.54950   0.26075754E-03
   0.55050   0.23660816E-03
   0.55150   0.20464809E-03
   0.55250   0.17214169E-03
   0.55350   0.14336222E-03
   0.55450   0.11982079E-03
   0.55550   0.10139373E-03
   0.55650   0.87283937E-04
   0.55750   0.76564931E-04
   0.55850   0.68411726E-04
   0.55950   0.62164960E-04
   0.56050   0.57324232E-04
   0.56150   0.53519136E-04
   0.56250   0.50478320E-04
   0.56350   0.48003283E-04
   0.56450   0.45948211E-04
   0.56550   0.44205135E-04
   0.56650   0.42693202E-04
   0.56750   0.41351057E-04
   0.56850   0.40131370E-04
   0.56950   0.38996946E-04
   0.57050   0.37917911E-04
   0.57150   0.36869671E-04
   0.57250   0.35831385E-04
   0.57350   0.34784807E-04
   0.57450   0.33713426E-04
   0.57550   0.32601773E-04
   0.57650   0.31434891E-04
   0.57750   0.30197985E-04
   0.57850   0.28876202E-04
   0.57950   0.27454684E-04
   0.58050   0.25918976E-04
   0.58150   0.24256058E-04
   0.58250   0.22456477E-04
   0.58350   0.20518422E-04
   0.58450   0.18455290E-04
   0.58550   0.16309610E-04
   0.58650   0.14178441E-04
   0.58750   0.12259291E-04
   0.58850   0.10931424E-04
   0.58950   0.10892633E-04
   0.59050   0.13363073E-04
   0.59150   0.20301335E-04
   0.59250   0.34362984E-04
   0.59350   0.57963010E-04
   0.59450   0.90927904E-04
   0.59550   0.12823079E-03
   0.59650   0.16157354E-03
   0.59750   0.18482147E-03
   0.59850   0.19718462E-03
   0.59950   0.20150123E-03
   0.60050   0.20124314E-03
   0.60150   0.19901745E-03
   0.60250   0.19640269E-03
   0.60350   0.19424783E-03
   0.60450   0.19297961E-03
   0.60550   0.19280949E-03
   0.60650   0.19385427E-03
   0.60750   0.19620352E-03
   0.60850   0.19995849E-03
   0.60950   0.20525869E-03
   0.61050   0.21230547E-03
   0.61150   0.22139031E-03
   0.61250   0.23293517E-03
   0.61350   0.24755442E-03
   0.61450   0.26614708E-03
   0.61550   0.28999080E-03
   0.61650   0.32043527E-03
   0.61750   0.35427895E-03
   0.61850   0.36249674E-03
   0.61950   0.33595070E-03
   0.62050   0.30467310E-03
   0.62150   0.27592308E-03
   0.62250   0.24921025E-03
   0.62350   0.22534649E-03
   0.62450   0.20631342E-03
   0.62550   0.19484849E-03
   0.62650   0.20202955E-03
   0.62750   0.22106645E-03
   0.62850   0.20261024E-03
   0.62950   0.17857002E-03
   0.63050   0.16117869E-03
   0.63150   0.14828207E-03
   0.63250   0.13813759E-03
   0.63350   0.12979639E-03
   0.63450   0.12228792E-03
   0.63550   0.11068452E-03
   0.63650   0.62411164E-04
   0.63750   0.64285603E-04
   0.63850   0.75325741E-04
   0.63950   0.76648728E-04
   0.64050   0.75106611E-04
   0.64150   0.72613861E-04
   0.64250   0.69899106E-04
   0.64350   0.67614950E-04
   0.64450   0.67207351E-04
   0.64550   0.71671006E-04
   0.64650   0.92120892E-04
   0.64750   0.71816037E-04
   0.64850   0.58828653E-04
   0.64950   0.58552476E-04
   0.65050   0.80330392E-04
   0.65150   0.22444103E-03
   0.65250   0.50810399E-02
   0.65350   0.64502708E-02
   0.65450   0.12742127E-01
   0.65550   0.45393589E-02
   0.65650   0.20018688E-02
   0.65750   0.19938529E-02
   0.65850   0.18291433E-02
   0.65950   0.14170352E-02
   0.66050   0.10519275E-02
   0.66150   0.77547651E-03
   0.66250   0.57009509E-03
   0.66350   0.43355336E-03
   0.66450   0.35466143E-03
   0.66550   0.31722279E-03
   0.66650   0.30558105E-03
   0.66750   0.30791521E-03
   0.66850   0.31726778E-03
   0.66950   0.33023898E-03
   0.67050   0.34502699E-03
   0.67150   0.36028342E-03
   0.67250   0.37491662E-03
   0.67350   0.38827967E-03
   0.67450   0.40019944E-03
   0.67550   0.41068817E-03
   0.67650   0.41958835E-03
   0.67750   0.42648567E-03
   0.67850   0.43096833E-03
   0.67950   0.43299753E-03
   0.68050   0.43306066E-03
   0.68150   0.43198181E-03
   0.68250   0.43054493E-03
   0.68350   0.42915740E-03
   0.68450   0.42759406E-03
   0.68550   0.42431417E-03
   0.68650   0.41260911E-03
   0.68750   0.37287991E-03
   0.68850   0.31749884E-03
   0.68950   0.27258135E-03
   0.69050   0.23835762E-03
   0.69150   0.21185401E-03
   0.69250   0.19098219E-03
   0.69350   0.17440628E-03
   0.69450   0.16126253E-03
   0.69550   0.15097372E-03
   0.69650   0.14313444E-03
   0.69750   0.13744435E-03
   0.69850   0.13367424E-03
   0.69950   0.13165534E-03
   0.70050   0.13128501E-03
   0.70150   0.13254645E-03
   0.70250   0.13554280E-03
   0.70350   0.14052445E-03
   0.70450   0.14758224E-03
   0.70550   0.15350540E-03
   0.70650   0.15287666E-03
   0.70750   0.14984695E-03
   0.70850   0.14684707E-03
   0.70950   0.14423650E-03
   0.71050   0.14197500E-03
   0.71150   0.13995450E-03
   0.71250   0.13806859E-03
   0.71350   0.13623034E-03
   0.71450   0.13437652E-03
   0.71550   0.13246607E-03
   0.71650   0.13047628E-03
   0.71750   0.12839779E-03
   0.71850   0.12623030E-03
   0.71950   0.12397964E-03
   0.72050   0.12165675E-03
   0.72150   0.11927800E-03
   0.72250   0.11686645E-03
   0.72350   0.11445286E-03
   0.72450   0.11207608E-03
   0.72550   0.10978218E-03
   0.72650   0.10762271E-03
   0.72750   0.10565258E-03
   0.72850   0.10392845E-03
   0.72950   0.10250885E-03
   0.73050   0.10145703E-03
   0.73150   0.10083916E-03
   0.73250   0.10061155E-03
   0.73350   0.10052781E-03
   0.73450   0.10069539E-03
   0.73550   0.10121325E-03
   0.73650   0.10208554E-03
   0.73750   0.10329196E-03
   0.73850   0.10480391E-03
   0.73950   0.10658812E-03
   0.74050   0.10860766E-03
   0.74150   0.11082261E-03
   0.74250   0.11319072E-03
   0.74350   0.11566832E-03
   0.74450   0.11821139E-03
   0.74550   0.12077681E-03
   0.74650   0.12332361E-03
   0.74750   0.12581404E-03
   0.74850   0.12821445E-03
   0.74950   0.13049581E-03
   0.75050   0.13263385E-03
   0.75150   0.13460900E-03
   0.75250   0.13640603E-03
   0.75350   0.13801384E-03
   0.75450   0.13942532E-03
   0.75550   0.14063730E-03
   0.75650   0.14165115E-03
   0.75750   0.14247344E-03
   0.75850   0.14311723E-03
   0.75950   0.14360393E-03
   0.76050   0.14396587E-03
   0.76150   0.14425024E-03
   0.76250   0.14452543E-03
   0.76350   0.14489259E-03
   0.76450   0.14550996E-03
   0.76550   0.14665467E-03
   0.76650   0.14892365E-03
   0.76750   0.15414789E-03
   0.76850   0.17255911E-03
   0.76950   0.65520452E-03
   0.77050   0.26488345E-03
   0.77150   0.21013293E-03
   0.77250   0.21783001E-03
   0.77350   0.24729292E-03
   0.77450   0.30573597E-03
   0.77550   0.42814628E-03
   0.77650   0.69139845E-03
   0.77750   0.91231428E-03
   0.77850   0.10101021E-02
   0.77950   0.24214618E-01
   0.78050   0.37994847E-01
   0.78150   0.28091222E-01
   0.78250   0.36078785E-01
   0.78350   0.60314909E-01
   0.78450   0.31383492E-01
   0.78550   0.14873592E-01
   0.78650   0.10542405E-01
   0.78750   0.84368102E-02
   0.78850   0.68066614E-02
   0.78950   0.55649271E-02
   0.79050   0.45835571E-02
   0.79150   0.38129508E-02
   0.79250   0.32508061E-02
   0.79350   0.28234310E-02
   0.79450   0.24783732E-02
   0.79550   0.22052375E-02
   0.79650   0.19860030E-02
   0.79750   0.18005251E-02
   0.79850   0.16439762E-02
   0.79950   0.15201250E-02
   0.80050   0.14304327E-02
   0.80150   0.13736745E-02
   0.80250   0.13490072E-02
   0.80350   0.13561073E-02
   0.80450   0.13935007E-02
   0.80550   0.14573842E-02
   0.80650   0.15415899E-02
   0.80750   0.16384993E-02
   0.80850   0.17403193E-02
   0.80950   0.18402336E-02
   0.81050   0.19332959E-02
   0.81150   0.20167576E-02
   0.81250   0.20894406E-02
   0.81350   0.21505484E-02
   0.81450   0.21990512E-02
   0.81550   0.22343074E-02
   0.81650   0.22573133E-02
   0.81750   0.22712173E-02
   0.81850   0.22804202E-02
   0.81950   0.22889362E-02
   0.82050   0.22992233E-02
   0.82150   0.23121019E-02
   0.82250   0.23274778E-02
   0.82350   0.23450162E-02
   0.82450   0.23637167E-02
   0.82550   0.23792691E-02
   0.82650   0.23901374E-02
   0.82750   0.24122247E-02
   0.82850   0.24479623E-02
   0.82950   0.24937016E-02
   0.83050   0.25467281E-02
   0.83150   0.26056701E-02
   0.83250   0.26705232E-02
   0.83350   0.27424274E-02
   0.83450   0.28231884E-02
   0.83550   0.29147139E-02
   0.83650   0.30185576E-02
   0.83750   0.31357014E-02
   0.83850   0.32666023E-02
   0.83950   0.34114358E-02
   0.84050   0.35701476E-02
   0.84150   0.37403905E-02
   0.84250   0.39009193E-02
   0.84350   0.39563407E-02
   0.84450   0.39021184E-02
   0.84550   0.38435459E-02
   0.84650   0.38006147E-02
   0.84750   0.37687339E-02
   0.84850   0.37433265E-02
   0.84950   0.37344520E-02
   0.85050   0.37430611E-02
   0.85150   0.37657951E-02
   0.85250   0.38002667E-02
   0.85350   0.38449406E-02
   0.85450   0.38988243E-02
   0.85550   0.39613000E-02
   0.85650   0.40320465E-02
   0.85750   0.41110227E-02
   0.85850   0.41985037E-02
   0.85950   0.42951736E-02
   0.86050   0.44022840E-02
   0.86150   0.45219054E-02
   0.86250   0.46573128E-02
   0.86350   0.48135961E-02
   0.86450   0.49986965E-02
   0.86550   0.52253609E-02
   0.86650   0.55154446E-02
   0.86750   0.59118588E-02
   0.86850   0.65308404E-02
   0.86950   0.83757685E-02
   0.87050   0.19088430E-01
   0.87150   0.88847484E-02
   0.87250   0.12109455E-01
   0.87350   0.24634184E-01
   0.87450   0.86753689E-01
   0.87550   0.65289609E-01
   0.87650   0.45109972E-01
   0.87750   0.42750869E-01
   0.87850   0.50526533E-01
   0.87950   0.69534674E-01
   0.88050   0.92942119E-01
   0.88150   0.99455908E-01
   0.88250   0.98993160E-01
   0.88350   0.10674863E+00
   0.88450   0.98430134E-01
   0.88550   0.86606160E-01
   0.88650   0.82128577E-01
   0.88750   0.79823643E-01
   0.88850   0.76751724E-01
   0.88950   0.74228443E-01
   0.89050   0.70295610E-01
   0.89150   0.64190559E-01
   0.89250   0.58784816E-01
   0.89350   0.54710481E-01
   0.89450   0.51307648E-01
   0.89550   0.48110593E-01
   0.89650   0.45269575E-01
   0.89750   0.43039501E-01
   0.89850   0.41460857E-01
   0.89950   0.40433709E-01
   0.90050   0.39840780E-01
   0.90150   0.39543383E-01
   0.90250   0.39419841E-01
   0.90350   0.39471734E-01
   0.90450   0.39668828E-01
   0.90550   0.39997503E-01
   0.90650   0.40420447E-01
   0.90750   0.40892750E-01
   0.90850   0.41442472E-01
   0.90950   0.42176750E-01
   0.91050   0.43202613E-01
   0.91150   0.44562165E-01
   0.91250   0.46224400E-01
   0.91350   0.48114467E-01
   0.91450   0.50148785E-01
   0.91550   0.52253310E-01
   0.91650   0.54366551E-01
   0.91750   0.56441780E-01
   0.91850   0.58454193E-01
   0.91950   0.60407311E-01
   0.92050   0.62332015E-01
   0.92150   0.64277947E-01
   0.92250   0.66301875E-01
   0.92350   0.68457082E-01
   0.92450   0.70784882E-01
   0.92550   0.73308371E-01
   0.92650   0.76029524E-01
   0.92750   0.78932546E-01
   0.92850   0.81995152E-01
   0.92950   0.85204504E-01
   0.93050   0.88569276E-01
   0.93150   0.92119426E-01
   0.93250   0.95891386E-01
   0.93350   0.99902779E-01
   0.93450   0.10412357E+00
   0.93550   0.10845680E+00
   0.93650   0.11275490E+00
   0.93750   0.11690155E+00
   0.93850   0.12097771E+00
   0.93950   0.12580416E+00
   0.94050   0.14155611E+00
   0.94150   0.14643408E+00
   0.94250   0.14192325E+00
   0.94350   0.14828353E+00
   0.94450   0.15984401E+00
   0.94550   0.17192176E+00
   0.94650   0.17143220E+00
   0.94750   0.16991669E+00
   0.94850   0.17348832E+00
   0.94950   0.18094948E+00
   0.95050   0.19090511E+00
   0.95150   0.19779918E+00
   0.95250   0.19893855E+00
   0.95350   0.20036522E+00
   0.95450   0.20406847E+00
   0.95550   0.20782058E+00
   0.95650   0.21014535E+00
   0.95750   0.21299540E+00
   0.95850   0.21968529E+00
   0.95950   0.23208439E+00
   0.96050   0.25062388E+00
   0.96150   0.27445433E+00
   0.96250   0.30138046E+00
   0.96350   0.32943690E+00
   0.96450   0.35866383E+00
   0.96550   0.38905460E+00
   0.96650   0.41794342E+00
   0.96750   0.44100720E+00
   0.96850   0.45678431E+00
   0.96950   0.46825954E+00
   0.97050   0.47893849E+00
   0.97150   0.49015763E+00
   0.97250   0.50210446E+00
   0.97350   0.51589042E+00
   0.97450   0.53247213E+00
   0.97550   0.54293728E+00
   0.97650   0.53053749E+00
   0.97750   0.50598443E+00
   0.97850   0.48644087E+00
   0.97950   0.47529930E+00
   0.98050   0.46845242E+00
   0.98150   0.46099845E+00
   0.98250   0.45386642E+00
   0.98350   0.45233160E+00
   0.98450   0.45401907E+00
   0.98550   0.44769409E+00
   0.98650   0.43391472E+00
   0.98750   0.42476693E+00
   0.98850   0.42263761E+00
   0.98950   0.41866115E+00
   0.99050   0.41819808E+00
   0.99150   0.42858320E+00
   0.99250   0.44353446E+00
   0.99350   0.44993180E+00
   0.99450   0.44745839E+00
   0.99550   0.44344014E+00
   0.99650   0.44276616E+00
   0.99750   0.44712099E+00
   0.99850   0.45719984E+00
   0.99950   0.47362030E+00
