# Transmission, k-averaged
# Date: 2021-05-13
#   E [eV]           T [G0]
   0.00050   0.61012131E+00
   0.00150   0.23545200E+00
   0.00250   0.84857248E-01
   0.00350   0.30334789E-01
   0.00450   0.34125589E-01
   0.00550   0.14828135E-01
   0.00650   0.66541168E-02
   0.00750   0.38474861E-02
   0.00850   0.14623416E-01
   0.00950   0.14597520E-02
   0.01050   0.31414982E-02
   0.01150   0.10546942E-01
   0.01250   0.12781350E-02
   0.01350   0.14116314E-02
   0.01450   0.11367858E-01
   0.01550   0.48889737E-02
   0.01650   0.13661628E-02
   0.01750   0.14225101E-02
   0.01850   0.45803343E-02
   0.01950   0.32819439E-01
   0.02050   0.29470737E-02
   0.02150   0.15122618E-02
   0.02250   0.17175989E-02
   0.02350   0.43378808E-02
   0.02450   0.42885669E-01
   0.02550   0.61434545E-02
   0.02650   0.21484671E-02
   0.02750   0.16429212E-02
   0.02850   0.21656458E-02
   0.02950   0.55673001E-02
   0.03050   0.39759543E-01
   0.03150   0.79411613E-02
   0.03250   0.26261669E-02
   0.03350   0.17626181E-02
   0.03450   0.18729059E-02
   0.03550   0.31790868E-02
   0.03650   0.11273605E-01
   0.03750   0.29578954E-01
   0.03850   0.52597295E-02
   0.03950   0.22955402E-02
   0.04050   0.17188349E-02
   0.04150   0.19383383E-02
   0.04250   0.34781492E-02
   0.04350   0.12926685E-01
   0.04450   0.16265975E-01
   0.04550   0.45118546E-02
   0.04650   0.27465571E-02
   0.04750   0.24155618E-02
   0.04850   0.26694306E-02
   0.04950   0.35252466E-02
   0.05050   0.51857373E-02
   0.05150   0.69219754E-02
   0.05250   0.64575896E-02
   0.05350   0.47441544E-02
   0.05450   0.35780293E-02
   0.05550   0.30649363E-02
   0.05650   0.30194584E-02
   0.05750   0.33675442E-02
   0.05850   0.40776422E-02
   0.05950   0.49029458E-02
   0.06050   0.51900153E-02
   0.06150   0.46789376E-02
   0.06250   0.39515905E-02
   0.06350   0.34543516E-02
   0.06450   0.32645320E-02
   0.06550   0.33437065E-02
   0.06650   0.36280651E-02
   0.06750   0.39971024E-02
   0.06850   0.42530834E-02
   0.06950   0.42450768E-02
   0.07050   0.40232907E-02
   0.07150   0.37562151E-02
   0.07250   0.35657089E-02
   0.07350   0.34920443E-02
   0.07450   0.35259696E-02
   0.07550   0.36318963E-02
   0.07650   0.37580731E-02
   0.07750   0.38503839E-02
   0.07850   0.38749087E-02
   0.07950   0.38333747E-02
   0.08050   0.37556151E-02
   0.08150   0.36778164E-02
   0.08250   0.36260609E-02
   0.08350   0.36115272E-02
   0.08450   0.36323899E-02
   0.08550   0.36774511E-02
   0.08650   0.37301551E-02
   0.08750   0.37734061E-02
   0.08850   0.37948494E-02
   0.08950   0.37907346E-02
   0.09050   0.37664026E-02
   0.09150   0.37339749E-02
   0.09250   0.37120313E-02
   0.09350   0.37137403E-02
   0.09450   0.37330729E-02
   0.09550   0.37614382E-02
   0.09650   0.37914321E-02
   0.09750   0.38174218E-02
   0.09850   0.38362262E-02
   0.09950   0.38472868E-02
   0.10050   0.38522012E-02
   0.10150   0.38538217E-02
   0.10250   0.38552596E-02
   0.10350   0.38590827E-02
   0.10450   0.38668413E-02
   0.10550   0.38789297E-02
   0.10650   0.38947139E-02
   0.10750   0.39128363E-02
   0.10850   0.39316104E-02
   0.10950   0.39494191E-02
   0.11050   0.39650477E-02
   0.11150   0.39778869E-02
   0.11250   0.39879782E-02
   0.11350   0.39959173E-02
   0.11450   0.40026479E-02
   0.11550   0.40092240E-02
   0.11650   0.40165791E-02
   0.11750   0.40253629E-02
   0.11850   0.40358547E-02
   0.11950   0.40479600E-02
   0.12050   0.40612784E-02
   0.12150   0.40752161E-02
   0.12250   0.40891320E-02
   0.12350   0.41024690E-02
   0.12450   0.41148686E-02
   0.12550   0.41262349E-02
   0.12650   0.41367440E-02
   0.12750   0.41468074E-02
   0.12850   0.41569937E-02
   0.12950   0.41679316E-02
   0.13050   0.41802176E-02
   0.13150   0.41943346E-02
   0.13250   0.42106044E-02
   0.13350   0.42291731E-02
   0.13450   0.42500319E-02
   0.13550   0.42730612E-02
   0.13650   0.42981021E-02
   0.13750   0.43250313E-02
   0.13850   0.43538362E-02
   0.13950   0.43846755E-02
   0.14050   0.44179196E-02
   0.14150   0.44541662E-02
   0.14250   0.44942345E-02
   0.14350   0.45391382E-02
   0.14450   0.45900531E-02
   0.14550   0.46482859E-02
   0.14650   0.47152471E-02
   0.14750   0.47924509E-02
   0.14850   0.48815287E-02
   0.14950   0.49842745E-02
   0.15050   0.51027150E-02
   0.15150   0.52391989E-02
   0.15250   0.53965147E-02
   0.15350   0.55780197E-02
   0.15450   0.57877856E-02
   0.15550   0.60307547E-02
   0.15650   0.63129044E-02
   0.15750   0.66414252E-02
   0.15850   0.70249117E-02
   0.15950   0.74735754E-02
   0.16050   0.79994872E-02
   0.16150   0.86168498E-02
   0.16250   0.93423203E-02
   0.16350   0.10195382E-01
   0.16450   0.11198770E-01
   0.16550   0.12378977E-01
   0.16650   0.13766824E-01
   0.16750   0.15398146E-01
   0.16850   0.17314546E-01
   0.16950   0.19564284E-01
   0.17050   0.22203229E-01
   0.17150   0.25295885E-01
   0.17250   0.28916392E-01
   0.17350   0.33149455E-01
   0.17450   0.38091034E-01
   0.17550   0.43848008E-01
   0.17650   0.50532311E-01
   0.17750   0.58260962E-01
   0.17850   0.67160368E-01
   0.17950   0.77361301E-01
   0.18050   0.88995859E-01
   0.18150   0.10219417E+00
   0.18250   0.11708047E+00
   0.18350   0.13376866E+00
   0.18450   0.15235728E+00
   0.18550   0.17292432E+00
   0.18650   0.19552173E+00
   0.18750   0.22017014E+00
   0.18850   0.24685398E+00
   0.18950   0.27551746E+00
   0.19050   0.30606174E+00
   0.19150   0.33834383E+00
   0.19250   0.37217721E+00
   0.19350   0.40733501E+00
   0.19450   0.44355467E+00
   0.19550   0.48054489E+00
   0.19650   0.51799375E+00
   0.19750   0.55557734E+00
   0.19850   0.59296924E+00
   0.19950   0.62984854E+00
   0.20050   0.66590756E+00
   0.20150   0.70085824E+00
   0.20250   0.73443687E+00
   0.20350   0.76640725E+00
   0.20450   0.79656321E+00
   0.20550   0.82472903E+00
   0.20650   0.85075933E+00
   0.20750   0.87453812E+00
   0.20850   0.89597613E+00
   0.20950   0.91500795E+00
   0.21050   0.93158764E+00
   0.21150   0.94568270E+00
   0.21250   0.95726699E+00
   0.21350   0.96631050E+00
   0.21450   0.97276884E+00
   0.21550   0.97658205E+00
   0.21650   0.97777742E+00
   0.21750   0.97724307E+00
   0.21850   0.97660714E+00
   0.21950   0.97474313E+00
   0.22050   0.97140634E+00
   0.22150   0.96693069E+00
   0.22250   0.96156442E+00
   0.22350   0.95546460E+00
   0.22450   0.94873255E+00
   0.22550   0.94143623E+00
   0.22650   0.93362236E+00
   0.22750   0.92532444E+00
   0.22850   0.91656691E+00
   0.22950   0.90736836E+00
   0.23050   0.89774352E+00
   0.23150   0.88770485E+00
   0.23250   0.87726319E+00
   0.23350   0.86642903E+00
   0.23450   0.85521328E+00
   0.23550   0.84363443E+00
   0.23650   0.83171219E+00
   0.23750   0.81946141E+00
   0.23850   0.80689955E+00
   0.23950   0.79404694E+00
   0.24050   0.78092659E+00
   0.24150   0.76756448E+00
   0.24250   0.75398988E+00
   0.24350   0.74023509E+00
   0.24450   0.72633600E+00
   0.24550   0.71233195E+00
   0.24650   0.69826579E+00
   0.24750   0.68418360E+00
   0.24850   0.67013466E+00
   0.24950   0.65617079E+00
   0.25050   0.64234620E+00
   0.25150   0.62871647E+00
   0.25250   0.61533827E+00
   0.25350   0.60226846E+00
   0.25450   0.58956307E+00
   0.25550   0.57727695E+00
   0.25650   0.56546247E+00
   0.25750   0.55416924E+00
   0.25850   0.54344308E+00
   0.25950   0.53332555E+00
   0.26050   0.52385342E+00
   0.26150   0.51505822E+00
   0.26250   0.50696611E+00
   0.26350   0.49959737E+00
   0.26450   0.49296671E+00
   0.26550   0.48708293E+00
   0.26650   0.48194927E+00
   0.26750   0.47756341E+00
   0.26850   0.47391799E+00
   0.26950   0.47100064E+00
   0.27050   0.46879455E+00
   0.27150   0.46727890E+00
   0.27250   0.46642914E+00
   0.27350   0.46621764E+00
   0.27450   0.46661413E+00
   0.27550   0.46758610E+00
   0.27650   0.46909943E+00
   0.27750   0.47111869E+00
   0.27850   0.47360775E+00
   0.27950   0.47653010E+00
   0.28050   0.47984931E+00
   0.28150   0.48352924E+00
   0.28250   0.48753455E+00
   0.28350   0.49183077E+00
   0.28450   0.49638459E+00
   0.28550   0.50116408E+00
   0.28650   0.50613868E+00
   0.28750   0.51127952E+00
   0.28850   0.51655912E+00
   0.28950   0.52195185E+00
   0.29050   0.52743340E+00
   0.29150   0.53298134E+00
   0.29250   0.53857452E+00
   0.29350   0.54419339E+00
   0.29450   0.54981965E+00
   0.29550   0.55543631E+00
   0.29650   0.56102747E+00
   0.29750   0.56657732E+00
   0.29850   0.57206917E+00
   0.29950   0.57748848E+00
   0.30050   0.58283579E+00
   0.30150   0.58810568E+00
   0.30250   0.59328818E+00
   0.30350   0.59837478E+00
   0.30450   0.60335803E+00
   0.30550   0.60823119E+00
   0.30650   0.61298847E+00
   0.30750   0.61762434E+00
   0.30850   0.62213391E+00
   0.30950   0.62651253E+00
   0.31050   0.63075578E+00
   0.31150   0.63485944E+00
   0.31250   0.63881934E+00
   0.31350   0.64263135E+00
   0.31450   0.64629120E+00
   0.31550   0.64979446E+00
   0.31650   0.65313643E+00
   0.31750   0.65631193E+00
   0.31850   0.65931547E+00
   0.31950   0.66214073E+00
   0.32050   0.66478068E+00
   0.32150   0.66722733E+00
   0.32250   0.66947150E+00
   0.32350   0.67150283E+00
   0.32450   0.67330897E+00
   0.32550   0.67487597E+00
   0.32650   0.67618746E+00
   0.32750   0.67722422E+00
   0.32850   0.67796421E+00
   0.32950   0.67838150E+00
   0.33050   0.67844623E+00
   0.33150   0.67812401E+00
   0.33250   0.67737597E+00
   0.33350   0.67615896E+00
   0.33450   0.67442763E+00
   0.33550   0.67213809E+00
   0.33650   0.66925704E+00
   0.33750   0.66577935E+00
   0.33850   0.66176236E+00
   0.33950   0.65739071E+00
   0.34050   0.65309304E+00
   0.34150   0.64973682E+00
   0.34250   0.64890540E+00
   0.34350   0.65313751E+00
   0.34450   0.66568929E+00
   0.34550   0.68902832E+00
   0.34650   0.72204137E+00
   0.34750   0.75870091E+00
   0.34850   0.79128796E+00
   0.34950   0.81522542E+00
   0.35050   0.83023632E+00
   0.35150   0.83833110E+00
   0.35250   0.84183210E+00
   0.35350   0.84254992E+00
   0.35450   0.84169155E+00
   0.35550   0.84000683E+00
   0.35650   0.83795232E+00
   0.35750   0.83581758E+00
   0.35850   0.83382004E+00
   0.35950   0.83219534E+00
   0.36050   0.83134490E+00
   0.36150   0.83221394E+00
   0.36250   0.83685303E+00
   0.36350   0.84293127E+00
   0.36450   0.84359103E+00
   0.36550   0.83865452E+00
   0.36650   0.82853180E+00
   0.36750   0.81303710E+00
   0.36850   0.79223281E+00
   0.36950   0.76815057E+00
   0.37050   0.74756968E+00
   0.37150   0.74252057E+00
   0.37250   0.76132458E+00
   0.37350   0.79729605E+00
   0.37450   0.83564323E+00
   0.37550   0.86729383E+00
   0.37650   0.89059097E+00
   0.37750   0.90704161E+00
   0.37850   0.91858852E+00
   0.37950   0.92677510E+00
   0.38050   0.93267781E+00
   0.38150   0.93702847E+00
   0.38250   0.94032538E+00
   0.38350   0.94283032E+00
   0.38450   0.94472206E+00
   0.38550   0.94614893E+00
   0.38650   0.94721484E+00
   0.38750   0.94799054E+00
   0.38850   0.94852430E+00
   0.38950   0.94884795E+00
   0.39050   0.94898117E+00
   0.39150   0.94893372E+00
   0.39250   0.94870675E+00
   0.39350   0.94829285E+00
   0.39450   0.94767565E+00
   0.39550   0.94682729E+00
   0.39650   0.94570524E+00
   0.39750   0.94424522E+00
   0.39850   0.94234997E+00
   0.39950   0.93986827E+00
   0.40050   0.93655849E+00
   0.40150   0.93203557E+00
   0.40250   0.92585313E+00
   0.40350   0.92013764E+00
   0.40450   0.95698696E+00
   0.40550   0.99921089E+00
   0.40650   0.96921688E+00
   0.40750   0.94895291E+00
   0.40850   0.93173838E+00
   0.40950   0.91232669E+00
   0.41050   0.88714391E+00
   0.41150   0.85608262E+00
   0.41250   0.83525831E+00
   0.41350   0.85760283E+00
   0.41450   0.90627414E+00
   0.41550   0.94552708E+00
   0.41650   0.96402836E+00
   0.41750   0.97514212E+00
   0.41850   0.98567647E+00
   0.41950   0.10011681E+01
   0.42050   0.10668234E+01
   0.42150   0.10062447E+01
   0.42250   0.97219026E+00
   0.42350   0.97383922E+00
   0.42450   0.97578740E+00
   0.42550   0.97782224E+00
   0.42650   0.98607934E+00
   0.42750   0.97999698E+00
   0.42850   0.84062594E+00
   0.42950   0.86893046E+00
   0.43050   0.81919050E+00
   0.43150   0.76020259E+00
   0.43250   0.70107490E+00
   0.43350   0.67081988E+00
   0.43450   0.65720946E+00
   0.43550   0.65526694E+00
   0.43650   0.65912473E+00
   0.43750   0.66363668E+00
   0.43850   0.66755015E+00
   0.43950   0.67137820E+00
   0.44050   0.67579758E+00
   0.44150   0.68023592E+00
   0.44250   0.68294883E+00
   0.44350   0.68294477E+00
   0.44450   0.68094486E+00
   0.44550   0.67842382E+00
   0.44650   0.67619509E+00
   0.44750   0.67397517E+00
   0.44850   0.67104560E+00
   0.44950   0.66709417E+00
   0.45050   0.66247582E+00
   0.45150   0.65788567E+00
   0.45250   0.65386897E+00
   0.45350   0.65055871E+00
   0.45450   0.64775515E+00
   0.45550   0.64519948E+00
   0.45650   0.64280981E+00
   0.45750   0.64074528E+00
   0.45850   0.63930637E+00
   0.45950   0.63876742E+00
   0.46050   0.63925022E+00
   0.46150   0.64070022E+00
   0.46250   0.64295751E+00
   0.46350   0.64586514E+00
   0.46450   0.64935249E+00
   0.46550   0.65345931E+00
   0.46650   0.65830159E+00
   0.46750   0.66400677E+00
   0.46850   0.67065126E+00
   0.46950   0.67822808E+00
   0.47050   0.68665349E+00
   0.47150   0.69580263E+00
   0.47250   0.70555520E+00
   0.47350   0.71583152E+00
   0.47450   0.72660631E+00
   0.47550   0.73790121E+00
   0.47650   0.74976087E+00
   0.47750   0.76222551E+00
   0.47850   0.77530795E+00
   0.47950   0.78898323E+00
   0.48050   0.80319107E+00
   0.48150   0.81784940E+00
   0.48250   0.83287168E+00
   0.48350   0.84818298E+00
   0.48450   0.86373043E+00
   0.48550   0.87948620E+00
   0.48650   0.89544415E+00
   0.48750   0.91161275E+00
   0.48850   0.92800689E+00
   0.48950   0.94464165E+00
   0.49050   0.96153027E+00
   0.49150   0.97868735E+00
   0.49250   0.99613976E+00
   0.49350   0.10139472E+01
   0.49450   0.10322435E+01
   0.49550   0.10513265E+01
   0.49650   0.10719055E+01
   0.49750   0.10958775E+01
   0.49850   0.11267613E+01
   0.49950   0.11599460E+01
   0.50050   0.11898243E+01
   0.50150   0.12173537E+01
   0.50250   0.12436093E+01
   0.50350   0.12692248E+01
   0.50450   0.12946011E+01
   0.50550   0.13200144E+01
   0.50650   0.13456472E+01
   0.50750   0.13715388E+01
   0.50850   0.13973423E+01
   0.50950   0.14214954E+01
   0.51050   0.14384370E+01
   0.51150   0.14301360E+01
   0.51250   0.13576396E+01
   0.51350   0.12446325E+01
   0.51450   0.12106711E+01
   0.51550   0.12560502E+01
   0.51650   0.13173976E+01
   0.51750   0.13721379E+01
   0.51850   0.14193170E+01
   0.51950   0.14611700E+01
   0.52050   0.14995226E+01
   0.52150   0.15356970E+01
   0.52250   0.15705097E+01
   0.52350   0.16042221E+01
   0.52450   0.16369630E+01
   0.52550   0.16687882E+01
   0.52650   0.16997037E+01
   0.52750   0.17296913E+01
   0.52850   0.17587253E+01
   0.52950   0.17867849E+01
   0.53050   0.18138601E+01
   0.53150   0.18399566E+01
   0.53250   0.18650951E+01
   0.53350   0.18892704E+01
   0.53450   0.19124516E+01
   0.53550   0.19347521E+01
   0.53650   0.19563279E+01
   0.53750   0.19773495E+01
   0.53850   0.19980185E+01
   0.53950   0.20185809E+01
   0.54050   0.20393429E+01
   0.54150   0.20606847E+01
   0.54250   0.20830636E+01
   0.54350   0.21069577E+01
   0.54450   0.21325855E+01
   0.54550   0.21588178E+01
   0.54650   0.21788237E+01
   0.54750   0.21645021E+01
   0.54850   0.20721979E+01
   0.54950   0.19698304E+01
   0.55050   0.19343206E+01
   0.55150   0.19390697E+01
   0.55250   0.19554774E+01
   0.55350   0.19730636E+01
   0.55450   0.19890265E+01
   0.55550   0.20029166E+01
   0.55650   0.20149157E+01
   0.55750   0.20253332E+01
   0.55850   0.20344660E+01
   0.55950   0.20425711E+01
   0.56050   0.20498676E+01
   0.56150   0.20565479E+01
   0.56250   0.20627902E+01
   0.56350   0.20687742E+01
   0.56450   0.20746987E+01
   0.56550   0.20808072E+01
   0.56650   0.20874286E+01
   0.56750   0.20950496E+01
   0.56850   0.21044559E+01
   0.56950   0.21170263E+01
   0.57050   0.21354096E+01
   0.57150   0.21651797E+01
   0.57250   0.22187498E+01
   0.57350   0.23163970E+01
   0.57450   0.23843093E+01
   0.57550   0.22097502E+01
   0.57650   0.20848916E+01
   0.57750   0.20445476E+01
   0.57850   0.20279808E+01
   0.57950   0.19998693E+01
   0.58050   0.20536761E+01
   0.58150   0.20403428E+01
   0.58250   0.20359569E+01
   0.58350   0.20330493E+01
   0.58450   0.20303605E+01
   0.58550   0.20275764E+01
   0.58650   0.20248754E+01
   0.58750   0.20222573E+01
   0.58850   0.20192838E+01
   0.58950   0.20187056E+01
   0.59050   0.20433393E+01
   0.59150   0.20712228E+01
   0.59250   0.20344896E+01
   0.59350   0.19014782E+01
   0.59450   0.13731266E+01
   0.59550   0.13978720E+01
   0.59650   0.13460193E+01
   0.59750   0.14662633E+01
   0.59850   0.15167598E+01
   0.59950   0.15441005E+01
   0.60050   0.15866435E+01
   0.60150   0.16118916E+01
   0.60250   0.16245545E+01
   0.60350   0.16367862E+01
   0.60450   0.16198868E+01
   0.60550   0.16156257E+01
   0.60650   0.16207327E+01
   0.60750   0.16220468E+01
   0.60850   0.16272659E+01
   0.60950   0.16397977E+01
   0.61050   0.16516106E+01
   0.61150   0.16586207E+01
   0.61250   0.16660789E+01
   0.61350   0.16759202E+01
   0.61450   0.16856325E+01
   0.61550   0.16949538E+01
   0.61650   0.17071744E+01
   0.61750   0.17245038E+01
   0.61850   0.17451727E+01
   0.61950   0.17651193E+01
   0.62050   0.17836155E+01
   0.62150   0.18018751E+01
   0.62250   0.18213061E+01
   0.62350   0.18409474E+01
   0.62450   0.18582374E+01
   0.62550   0.18725578E+01
   0.62650   0.18841023E+01
   0.62750   0.18933580E+01
   0.62850   0.19007456E+01
   0.62950   0.19064898E+01
   0.63050   0.19107497E+01
   0.63150   0.19138105E+01
   0.63250   0.19161470E+01
   0.63350   0.19183228E+01
   0.63450   0.19208375E+01
   0.63550   0.19240515E+01
   0.63650   0.19282146E+01
   0.63750   0.19335309E+01
   0.63850   0.19401935E+01
   0.63950   0.19483696E+01
   0.64050   0.19581654E+01
   0.64150   0.19696100E+01
   0.64250   0.19826703E+01
   0.64350   0.19972799E+01
   0.64450   0.20133584E+01
   0.64550   0.20308101E+01
   0.64650   0.20495150E+01
   0.64750   0.20693223E+01
   0.64850   0.20900624E+01
   0.64950   0.21115651E+01
   0.65050   0.21336803E+01
   0.65150   0.21562836E+01
   0.65250   0.21792707E+01
   0.65350   0.22025452E+01
   0.65450   0.22260079E+01
   0.65550   0.22495565E+01
   0.65650   0.22730904E+01
   0.65750   0.22965221E+01
   0.65850   0.23197834E+01
   0.65950   0.23428264E+01
   0.66050   0.23656151E+01
   0.66150   0.23881176E+01
   0.66250   0.24102967E+01
   0.66350   0.24321065E+01
   0.66450   0.24534945E+01
   0.66550   0.24744086E+01
   0.66650   0.24948037E+01
   0.66750   0.25146470E+01
   0.66850   0.25339203E+01
   0.66950   0.25526159E+01
   0.67050   0.25707319E+01
   0.67150   0.25882642E+01
   0.67250   0.26052048E+01
   0.67350   0.26215374E+01
   0.67450   0.26372421E+01
   0.67550   0.26522989E+01
   0.67650   0.26666927E+01
   0.67750   0.26804192E+01
   0.67850   0.26934855E+01
   0.67950   0.27059100E+01
   0.68050   0.27177196E+01
   0.68150   0.27289441E+01
   0.68250   0.27396114E+01
   0.68350   0.27497442E+01
   0.68450   0.27593582E+01
   0.68550   0.27684634E+01
   0.68650   0.27770658E+01
   0.68750   0.27851298E+01
   0.68850   0.27925673E+01
   0.68950   0.27994232E+01
   0.69050   0.28057606E+01
   0.69150   0.28116138E+01
   0.69250   0.28169971E+01
   0.69350   0.28219059E+01
   0.69450   0.28263161E+01
   0.69550   0.28301806E+01
   0.69650   0.28334188E+01
   0.69750   0.28358917E+01
   0.69850   0.28373375E+01
   0.69950   0.28371866E+01
   0.70050   0.28339708E+01
   0.70150   0.28236294E+01
   0.70250   0.27823279E+01
   0.70350   0.27269182E+01
   0.70450   0.28569212E+01
   0.70550   0.28635325E+01
   0.70650   0.28641529E+01
   0.70750   0.28632019E+01
   0.70850   0.28464739E+01
   0.70950   0.26609921E+01
   0.71050   0.27360442E+01
   0.71150   0.25040371E+01
   0.71250   0.24148111E+01
   0.71350   0.27043438E+01
   0.71450   0.27251143E+01
   0.71550   0.25922303E+01
   0.71650   0.25610101E+01
   0.71750   0.25673838E+01
   0.71850   0.25674615E+01
   0.71950   0.25310495E+01
   0.72050   0.25619025E+01
   0.72150   0.25953851E+01
   0.72250   0.26005661E+01
   0.72350   0.25953474E+01
   0.72450   0.25861490E+01
   0.72550   0.25721731E+01
   0.72650   0.25546663E+01
   0.72750   0.25392747E+01
   0.72850   0.25286694E+01
   0.72950   0.25191498E+01
   0.73050   0.25088732E+01
   0.73150   0.25002809E+01
   0.73250   0.24975762E+01
   0.73350   0.25028231E+01
   0.73450   0.25139346E+01
   0.73550   0.25289605E+01
   0.73650   0.25467165E+01
   0.73750   0.25665469E+01
   0.73850   0.25880115E+01
   0.73950   0.26106806E+01
   0.74050   0.26341093E+01
   0.74150   0.26578889E+01
   0.74250   0.26816890E+01
   0.74350   0.27052591E+01
   0.74450   0.27284303E+01
   0.74550   0.27511373E+01
   0.74650   0.27734199E+01
   0.74750   0.27953644E+01
   0.74850   0.28170173E+01
   0.74950   0.28383434E+01
   0.75050   0.28592691E+01
   0.75150   0.28797629E+01
   0.75250   0.28998733E+01
   0.75350   0.29196899E+01
   0.75450   0.29392602E+01
   0.75550   0.29585240E+01
   0.75650   0.29773142E+01
   0.75750   0.29954362E+01
   0.75850   0.30127804E+01
   0.75950   0.30294006E+01
   0.76050   0.30455115E+01
   0.76150   0.30614126E+01
   0.76250   0.30773795E+01
   0.76350   0.30935738E+01
   0.76450   0.31100008E+01
   0.76550   0.31265261E+01
   0.76650   0.31429443E+01
   0.76750   0.31590710E+01
   0.76850   0.31748183E+01
   0.76950   0.31902287E+01
   0.77050   0.32054484E+01
   0.77150   0.32206614E+01
   0.77250   0.32360084E+01
   0.77350   0.32515233E+01
   0.77450   0.32671068E+01
   0.77550   0.32825453E+01
   0.77650   0.32975664E+01
   0.77750   0.33119166E+01
   0.77850   0.33254294E+01
   0.77950   0.33380642E+01
   0.78050   0.33498962E+01
   0.78150   0.33610859E+01
   0.78250   0.33720582E+01
   0.78350   0.33832085E+01
   0.78450   0.33941073E+01
   0.78550   0.34043939E+01
   0.78650   0.34139047E+01
   0.78750   0.34225893E+01
   0.78850   0.34304585E+01
   0.78950   0.34375427E+01
   0.79050   0.34438572E+01
   0.79150   0.34493763E+01
   0.79250   0.34540107E+01
   0.79350   0.34575777E+01
   0.79450   0.34597425E+01
   0.79550   0.34598835E+01
   0.79650   0.34568207E+01
   0.79750   0.34489703E+01
   0.79850   0.34489172E+01
   0.79950   0.31927600E+01
   0.80050   0.32647178E+01
   0.80150   0.34520667E+01
   0.80250   0.34845827E+01
   0.80350   0.34887710E+01
   0.80450   0.34783833E+01
   0.80550   0.34352462E+01
   0.80650   0.32416770E+01
   0.80750   0.31527438E+01
   0.80850   0.33815503E+01
   0.80950   0.34286149E+01
   0.81050   0.33989909E+01
   0.81150   0.33313556E+01
   0.81250   0.33994319E+01
   0.81350   0.33594158E+01
   0.81450   0.32523801E+01
   0.81550   0.33091362E+01
   0.81650   0.34037008E+01
   0.81750   0.34339955E+01
   0.81850   0.34366596E+01
   0.81950   0.33860548E+01
   0.82050   0.33177037E+01
   0.82150   0.32879093E+01
   0.82250   0.32642510E+01
   0.82350   0.32463555E+01
   0.82450   0.32461877E+01
   0.82550   0.32437303E+01
   0.82650   0.32360864E+01
   0.82750   0.32284973E+01
   0.82850   0.32400460E+01
   0.82950   0.32775519E+01
   0.83050   0.33196104E+01
   0.83150   0.33524268E+01
   0.83250   0.33769629E+01
   0.83350   0.33973715E+01
   0.83450   0.34173093E+01
   0.83550   0.34381955E+01
   0.83650   0.34594190E+01
   0.83750   0.34800775E+01
   0.83850   0.34994054E+01
   0.83950   0.35167255E+01
   0.84050   0.35317767E+01
   0.84150   0.35449727E+01
   0.84250   0.35571144E+01
   0.84350   0.35689099E+01
   0.84450   0.35806699E+01
   0.84550   0.35925829E+01
   0.84650   0.36056442E+01
   0.84750   0.36211970E+01
   0.84850   0.36397939E+01
   0.84950   0.36602437E+01
   0.85050   0.36803358E+01
   0.85150   0.36979394E+01
   0.85250   0.37119026E+01
   0.85350   0.37223551E+01
   0.85450   0.37302949E+01
   0.85550   0.37369277E+01
   0.85650   0.37431993E+01
   0.85750   0.37496295E+01
   0.85850   0.37563570E+01
   0.85950   0.37632828E+01
   0.86050   0.37702248E+01
   0.86150   0.37770357E+01
   0.86250   0.37836568E+01
   0.86350   0.37901125E+01
   0.86450   0.37964711E+01
   0.86550   0.38028009E+01
   0.86650   0.38091433E+01
   0.86750   0.38155072E+01
   0.86850   0.38218775E+01
   0.86950   0.38282268E+01
   0.87050   0.38345177E+01
   0.87150   0.38406949E+01
   0.87250   0.38466709E+01
   0.87350   0.38523109E+01
   0.87450   0.38574262E+01
   0.87550   0.38617721E+01
   0.87650   0.38650515E+01
   0.87750   0.38669050E+01
   0.87850   0.38668816E+01
   0.87950   0.38643620E+01
   0.88050   0.38584015E+01
   0.88150   0.38474061E+01
   0.88250   0.38284221E+01
   0.88350   0.37955327E+01
   0.88450   0.37374368E+01
   0.88550   0.36511042E+01
   0.88650   0.36232383E+01
   0.88750   0.35197608E+01
   0.88850   0.38265007E+01
   0.88950   0.38523114E+01
   0.89050   0.38437355E+01
   0.89150   0.38253613E+01
   0.89250   0.37861187E+01
   0.89350   0.37467253E+01
   0.89450   0.37000520E+01
   0.89550   0.36161573E+01
   0.89650   0.35458663E+01
   0.89750   0.35249021E+01
   0.89850   0.35318620E+01
   0.89950   0.35183713E+01
   0.90050   0.35109367E+01
   0.90150   0.35308518E+01
   0.90250   0.35561690E+01
   0.90350   0.35823426E+01
   0.90450   0.36131635E+01
   0.90550   0.36441107E+01
   0.90650   0.36718850E+01
   0.90750   0.36928763E+01
   0.90850   0.37049894E+01
   0.90950   0.37091177E+01
   0.91050   0.37088904E+01
   0.91150   0.37094140E+01
   0.91250   0.37129109E+01
   0.91350   0.37154565E+01
   0.91450   0.37114024E+01
   0.91550   0.36996801E+01
   0.91650   0.36829934E+01
   0.91750   0.36641934E+01
   0.91850   0.36450338E+01
   0.91950   0.36265216E+01
   0.92050   0.36093192E+01
   0.92150   0.35937793E+01
   0.92250   0.35798516E+01
   0.92350   0.35672655E+01
   0.92450   0.35561135E+01
   0.92550   0.35472176E+01
   0.92650   0.35415134E+01
   0.92750   0.35386057E+01
   0.92850   0.35355902E+01
   0.92950   0.35282159E+01
   0.93050   0.35145371E+01
   0.93150   0.34961925E+01
   0.93250   0.34758921E+01
   0.93350   0.34553523E+01
   0.93450   0.34350886E+01
   0.93550   0.34148817E+01
   0.93650   0.33942037E+01
   0.93750   0.33725011E+01
   0.93850   0.33493617E+01
   0.93950   0.33246028E+01
   0.94050   0.32983153E+01
   0.94150   0.32708747E+01
   0.94250   0.32429349E+01
   0.94350   0.32153962E+01
   0.94450   0.31894443E+01
   0.94550   0.31669555E+01
   0.94650   0.31489871E+01
   0.94750   0.31345541E+01
   0.94850   0.31208005E+01
   0.94950   0.30959249E+01
   0.95050   0.30361054E+01
   0.95150   0.30137744E+01
   0.95250   0.29844177E+01
   0.95350   0.29433184E+01
   0.95450   0.28973351E+01
   0.95550   0.28538749E+01
   0.95650   0.28123267E+01
   0.95750   0.27689741E+01
   0.95850   0.27220683E+01
   0.95950   0.26696191E+01
   0.96050   0.26112950E+01
   0.96150   0.25533297E+01
   0.96250   0.25006704E+01
   0.96350   0.24481502E+01
   0.96450   0.23924403E+01
   0.96550   0.23342824E+01
   0.96650   0.22753701E+01
   0.96750   0.22170241E+01
   0.96850   0.21598830E+01
   0.96950   0.21046376E+01
   0.97050   0.20530362E+01
   0.97150   0.20053093E+01
   0.97250   0.19544654E+01
   0.97350   0.18948746E+01
   0.97450   0.18284085E+01
   0.97550   0.17546853E+01
   0.97650   0.16785089E+01
   0.97750   0.16085352E+01
   0.97850   0.15458864E+01
   0.97950   0.14874825E+01
   0.98050   0.14320341E+01
   0.98150   0.13803042E+01
   0.98250   0.13333211E+01
   0.98350   0.12911642E+01
   0.98450   0.12524780E+01
   0.98550   0.12147210E+01
   0.98650   0.11749312E+01
   0.98750   0.11306423E+01
   0.98850   0.10805886E+01
   0.98950   0.10249152E+01
   0.99050   0.96448439E+00
   0.99150   0.90083814E+00
   0.99250   0.83724469E+00
   0.99350   0.77839196E+00
   0.99450   0.72741193E+00
   0.99550   0.68262899E+00
   0.99650   0.63881803E+00
   0.99750   0.59356499E+00
   0.99850   0.54928607E+00
   0.99950   0.50972140E+00
