# Transmission, k-averaged
# Date: 2021-05-13
#   E [eV]           T [G0]
   0.00050   0.10755467E+00
   0.00150   0.85850112E-01
   0.00250   0.44680618E-01
   0.00350   0.19969616E-01
   0.00450   0.26371593E-01
   0.00550   0.13054875E-01
   0.00650   0.65619997E-02
   0.00750   0.41896557E-02
   0.00850   0.17334528E-01
   0.00950   0.18567579E-02
   0.01050   0.42315577E-02
   0.01150   0.14882395E-01
   0.01250   0.18740275E-02
   0.01350   0.21384936E-02
   0.01450   0.17728178E-01
   0.01550   0.78312717E-02
   0.01650   0.22446113E-02
   0.01750   0.23951123E-02
   0.01850   0.78984778E-02
   0.01950   0.57938047E-01
   0.02050   0.53237644E-02
   0.02150   0.27939344E-02
   0.02250   0.32433241E-02
   0.02350   0.83656963E-02
   0.02450   0.84396876E-01
   0.02550   0.12325268E-01
   0.02650   0.43893154E-02
   0.02750   0.34136344E-02
   0.02850   0.45698909E-02
   0.02950   0.11912724E-01
   0.03050   0.86125046E-01
   0.03150   0.17382169E-01
   0.03250   0.57971068E-02
   0.03350   0.39153574E-02
   0.03450   0.41765696E-02
   0.03550   0.70985067E-02
   0.03650   0.25133261E-01
   0.03750   0.65632023E-01
   0.03850   0.11574144E-01
   0.03950   0.49887388E-02
   0.04050   0.36703430E-02
   0.04150   0.40397295E-02
   0.04250   0.70042550E-02
   0.04350   0.24693443E-01
   0.04450   0.28194526E-01
   0.04550   0.65126442E-02
   0.04650   0.32343992E-02
   0.04750   0.23863760E-02
   0.04850   0.22639851E-02
   0.04950   0.26109705E-02
   0.05050   0.34021141E-02
   0.05150   0.40768860E-02
   0.05250   0.34629344E-02
   0.05350   0.23529585E-02
   0.05450   0.16706921E-02
   0.05550   0.13743351E-02
   0.05650   0.13283052E-02
   0.05750   0.14853945E-02
   0.05850   0.18413351E-02
   0.05950   0.23087559E-02
   0.06050   0.25869431E-02
   0.06150   0.24958113E-02
   0.06250   0.22712047E-02
   0.06350   0.21459577E-02
   0.06450   0.21919513E-02
   0.06550   0.24205439E-02
   0.06650   0.28195791E-02
   0.06750   0.33168292E-02
   0.06850   0.37455107E-02
   0.06950   0.39425320E-02
   0.07050   0.39159078E-02
   0.07150   0.38085741E-02
   0.07250   0.37454427E-02
   0.07350   0.37808598E-02
   0.07450   0.39173742E-02
   0.07550   0.41243737E-02
   0.07650   0.43475754E-02
   0.07750   0.45251227E-02
   0.07850   0.46157744E-02
   0.07950   0.46200324E-02
   0.08050   0.45734867E-02
   0.08150   0.45213387E-02
   0.08250   0.44978741E-02
   0.08350   0.45197313E-02
   0.08450   0.45875921E-02
   0.08550   0.46902737E-02
   0.08650   0.48094564E-02
   0.08750   0.49255043E-02
   0.08850   0.50238790E-02
   0.08950   0.50990633E-02
   0.09050   0.51492066E-02
   0.09150   0.51363651E-02
   0.09250   0.49067545E-02
   0.09350   0.45437505E-02
   0.09450   0.42280704E-02
   0.09550   0.39683376E-02
   0.09650   0.37467605E-02
   0.09750   0.35495677E-02
   0.09850   0.33686170E-02
   0.09950   0.32001105E-02
   0.10050   0.30430178E-02
   0.10150   0.28976414E-02
   0.10250   0.27645286E-02
   0.10350   0.26438218E-02
   0.10450   0.25350039E-02
   0.10550   0.24369289E-02
   0.10650   0.23480139E-02
   0.10750   0.22664994E-02
   0.10850   0.21907003E-02
   0.10950   0.21192108E-02
   0.11050   0.20510289E-02
   0.11150   0.19855883E-02
   0.11250   0.19227098E-02
   0.11350   0.18624901E-02
   0.11450   0.18051662E-02
   0.11550   0.17509868E-02
   0.11650   0.17001133E-02
   0.11750   0.16525647E-02
   0.11850   0.16082040E-02
   0.11950   0.15667592E-02
   0.12050   0.15278676E-02
   0.12150   0.14911314E-02
   0.12250   0.14561729E-02
   0.12350   0.14226799E-02
   0.12450   0.13904354E-02
   0.12550   0.13593272E-02
   0.12650   0.13293391E-02
   0.12750   0.13005271E-02
   0.12850   0.12729877E-02
   0.12950   0.12468238E-02
   0.13050   0.12221166E-02
   0.13150   0.11989053E-02
   0.13250   0.11771773E-02
   0.13350   0.11568700E-02
   0.13450   0.11378805E-02
   0.13550   0.11200821E-02
   0.13650   0.11033431E-02
   0.13750   0.10875465E-02
   0.13850   0.10726058E-02
   0.13950   0.10584757E-02
   0.14050   0.10451563E-02
   0.14150   0.10326908E-02
   0.14250   0.10211581E-02
   0.14350   0.10106610E-02
   0.14450   0.10013141E-02
   0.14550   0.99323189E-03
   0.14650   0.98652043E-03
   0.14750   0.98127185E-03
   0.14850   0.97756495E-03
   0.14950   0.97546843E-03
   0.15050   0.97504875E-03
   0.15150   0.97637990E-03
   0.15250   0.97955449E-03
   0.15350   0.98469411E-03
   0.15450   0.99195761E-03
   0.15550   0.10015471E-02
   0.15650   0.10137088E-02
   0.15750   0.10287312E-02
   0.15850   0.10469386E-02
   0.15950   0.10686810E-02
   0.16050   0.10943229E-02
   0.16150   0.11242293E-02
   0.16250   0.11587520E-02
   0.16350   0.11982148E-02
   0.16450   0.12429004E-02
   0.16550   0.12930355E-02
   0.16650   0.13487760E-02
   0.16750   0.14101862E-02
   0.16850   0.14772052E-02
   0.16950   0.15495821E-02
   0.17050   0.16267375E-02
   0.17150   0.17074437E-02
   0.17250   0.17889953E-02
   0.17350   0.18647001E-02
   0.17450   0.19146662E-02
   0.17550   0.18781620E-02
   0.17650   0.17376790E-02
   0.17750   0.16143409E-02
   0.17850   0.15266769E-02
   0.17950   0.14617865E-02
   0.18050   0.14107530E-02
   0.18150   0.13681496E-02
   0.18250   0.13304939E-02
   0.18350   0.12954185E-02
   0.18450   0.12612450E-02
   0.18550   0.12267552E-02
   0.18650   0.11910624E-02
   0.18750   0.11535349E-02
   0.18850   0.11137491E-02
   0.18950   0.10714589E-02
   0.19050   0.10265739E-02
   0.19150   0.97914238E-03
   0.19250   0.92933507E-03
   0.19350   0.87743043E-03
   0.19450   0.82379702E-03
   0.19550   0.76887483E-03
   0.19650   0.71315578E-03
   0.19750   0.65716245E-03
   0.19850   0.60142821E-03
   0.19950   0.54647808E-03
   0.20050   0.49281219E-03
   0.20150   0.44089230E-03
   0.20250   0.39113202E-03
   0.20350   0.34389048E-03
   0.20450   0.29946954E-03
   0.20550   0.25811387E-03
   0.20650   0.22001390E-03
   0.20750   0.18531045E-03
   0.20850   0.15410136E-03
   0.20950   0.12644939E-03
   0.21050   0.10239147E-03
   0.21150   0.81949540E-04
   0.21250   0.65143257E-04
   0.21350   0.52005125E-04
   0.21450   0.42596512E-04
   0.21550   0.37007176E-04
   0.21650   0.35198282E-04
   0.21750   0.35863617E-04
   0.21850   0.36708207E-04
   0.21950   0.39563594E-04
   0.22050   0.44874880E-04
   0.22150   0.52216466E-04
   0.22250   0.61300176E-04
   0.22350   0.71989787E-04
   0.22450   0.84254047E-04
   0.22550   0.98140175E-04
   0.22650   0.11376401E-03
   0.22750   0.13131204E-03
   0.22850   0.15105418E-03
   0.22950   0.17336964E-03
   0.23050   0.19879166E-03
   0.23150   0.22807608E-03
   0.23250   0.26226178E-03
   0.23350   0.30226968E-03
   0.23450   0.34378821E-03
   0.23550   0.36826020E-03
   0.23650   0.37954486E-03
   0.23750   0.38808747E-03
   0.23850   0.39619833E-03
   0.23950   0.40426527E-03
   0.24050   0.41230800E-03
   0.24150   0.42026909E-03
   0.24250   0.42807855E-03
   0.24350   0.43566932E-03
   0.24450   0.44298079E-03
   0.24550   0.44995875E-03
   0.24650   0.45655511E-03
   0.24750   0.46272742E-03
   0.24850   0.46843867E-03
   0.24950   0.47365719E-03
   0.25050   0.47835670E-03
   0.25150   0.48251648E-03
   0.25250   0.48612143E-03
   0.25350   0.48916211E-03
   0.25450   0.49163500E-03
   0.25550   0.49354212E-03
   0.25650   0.49489102E-03
   0.25750   0.49569458E-03
   0.25850   0.49597060E-03
   0.25950   0.49574114E-03
   0.26050   0.49503217E-03
   0.26150   0.49387303E-03
   0.26250   0.49229531E-03
   0.26350   0.49033266E-03
   0.26450   0.48801972E-03
   0.26550   0.48539165E-03
   0.26650   0.48248336E-03
   0.26750   0.47932914E-03
   0.26850   0.47596198E-03
   0.26950   0.47241335E-03
   0.27050   0.46871297E-03
   0.27150   0.46488852E-03
   0.27250   0.46096579E-03
   0.27350   0.45696853E-03
   0.27450   0.45291876E-03
   0.27550   0.44883680E-03
   0.27650   0.44474166E-03
   0.27750   0.44065114E-03
   0.27850   0.43658220E-03
   0.27950   0.43255108E-03
   0.28050   0.42857378E-03
   0.28150   0.42466598E-03
   0.28250   0.42084348E-03
   0.28350   0.41712218E-03
   0.28450   0.41351831E-03
   0.28550   0.41004844E-03
   0.28650   0.40672946E-03
   0.28750   0.40357871E-03
   0.28850   0.40061341E-03
   0.28950   0.39785032E-03
   0.29050   0.39530438E-03
   0.29150   0.39298611E-03
   0.29250   0.39089605E-03
   0.29350   0.38901175E-03
   0.29450   0.38725685E-03
   0.29550   0.38541708E-03
   0.29650   0.38287943E-03
   0.29750   0.37764388E-03
   0.29850   0.36224988E-03
   0.29950   0.32490146E-03
   0.30050   0.28461384E-03
   0.30150   0.25301444E-03
   0.30250   0.22822025E-03
   0.30350   0.20814600E-03
   0.30450   0.19146608E-03
   0.30550   0.17733274E-03
   0.30650   0.16517760E-03
   0.30750   0.15460214E-03
   0.30850   0.14531634E-03
   0.30950   0.13710256E-03
   0.31050   0.12979336E-03
   0.31150   0.12325728E-03
   0.31250   0.11738933E-03
   0.31350   0.11210440E-03
   0.31450   0.10733277E-03
   0.31550   0.10301667E-03
   0.31650   0.99107965E-04
   0.31750   0.95566204E-04
   0.31850   0.92357324E-04
   0.31950   0.89452544E-04
   0.32050   0.86827553E-04
   0.32150   0.84461892E-04
   0.32250   0.82338454E-04
   0.32350   0.80443111E-04
   0.32450   0.78764446E-04
   0.32550   0.77293524E-04
   0.32650   0.76023811E-04
   0.32750   0.74951065E-04
   0.32850   0.74073345E-04
   0.32950   0.73391027E-04
   0.33050   0.72906885E-04
   0.33150   0.72626157E-04
   0.33250   0.72556599E-04
   0.33350   0.72708390E-04
   0.33450   0.73093805E-04
   0.33550   0.73726187E-04
   0.33650   0.74617834E-04
   0.33750   0.75775359E-04
   0.33850   0.77190634E-04
   0.33950   0.78823308E-04
   0.34050   0.80568570E-04
   0.34150   0.82201448E-04
   0.34250   0.83292049E-04
   0.34350   0.83112609E-04
   0.34450   0.80641090E-04
   0.34550   0.74901807E-04
   0.34650   0.65800938E-04
   0.34750   0.54833312E-04
   0.34850   0.44448378E-04
   0.34950   0.36455051E-04
   0.35050   0.31298408E-04
   0.35150   0.28526181E-04
   0.35250   0.27451222E-04
   0.35350   0.27488684E-04
   0.35450   0.28231010E-04
   0.35550   0.29420000E-04
   0.35650   0.30900341E-04
   0.35750   0.32580923E-04
   0.35850   0.34406272E-04
   0.35950   0.36332018E-04
   0.36050   0.38289691E-04
   0.36150   0.40093306E-04
   0.36250   0.41219417E-04
   0.36350   0.41848747E-04
   0.36450   0.43614280E-04
   0.36550   0.46854620E-04
   0.36650   0.51630115E-04
   0.36750   0.58066911E-04
   0.36850   0.66125467E-04
   0.36950   0.75064534E-04
   0.37050   0.82641709E-04
   0.37150   0.85117892E-04
   0.37250   0.79971222E-04
   0.37350   0.69207352E-04
   0.37450   0.57538837E-04
   0.37550   0.48132719E-04
   0.37650   0.41766274E-04
   0.37750   0.38095113E-04
   0.37850   0.36603851E-04
   0.37950   0.36951784E-04
   0.38050   0.39026840E-04
   0.38150   0.42536798E-04
   0.38250   0.44595345E-04
   0.38350   0.43517997E-04
   0.38450   0.41782343E-04
   0.38550   0.40223083E-04
   0.38650   0.38959814E-04
   0.38750   0.37981761E-04
   0.38850   0.37259659E-04
   0.38950   0.36768346E-04
   0.39050   0.36491077E-04
   0.39150   0.36419915E-04
   0.39250   0.36555615E-04
   0.39350   0.36907990E-04
   0.39450   0.37497215E-04
   0.39550   0.38356455E-04
   0.39650   0.39536702E-04
   0.39750   0.41115352E-04
   0.39850   0.43211818E-04
   0.39950   0.46017431E-04
   0.40050   0.49856684E-04
   0.40150   0.55319717E-04
   0.40250   0.63519641E-04
   0.40350   0.75459866E-04
   0.40450   0.64002263E-04
   0.40550   0.18415469E-04
   0.40650   0.38698352E-04
   0.40750   0.61550847E-04
   0.40850   0.89554989E-04
   0.40950   0.13259600E-03
   0.41050   0.20911897E-03
   0.41150   0.35495355E-03
   0.41250   0.60701033E-03
   0.41350   0.85953565E-03
   0.41450   0.79790584E-03
   0.41550   0.49952767E-03
   0.41650   0.26181675E-03
   0.41750   0.13678410E-03
   0.41850   0.83689192E-04
   0.41950   0.80936872E-04
   0.42050   0.22126574E-03
   0.42150   0.16337859E-03
   0.42250   0.13852136E-04
   0.42350   0.41373273E-05
   0.42450   0.50711174E-05
   0.42550   0.10838156E-04
   0.42650   0.32043296E-04
   0.42750   0.63477810E-02
   0.42850   0.22286810E-02
   0.42950   0.19834547E-02
   0.43050   0.27734130E-02
   0.43150   0.30015085E-02
   0.43250   0.29841447E-02
   0.43350   0.27198668E-02
   0.43450   0.23902438E-02
   0.43550   0.21049732E-02
   0.43650   0.18714907E-02
   0.43750   0.16714530E-02
   0.43850   0.15196499E-02
   0.43950   0.14209460E-02
   0.44050   0.13553970E-02
   0.44150   0.13005993E-02
   0.44250   0.12493057E-02
   0.44350   0.12050624E-02
   0.44450   0.11704344E-02
   0.44550   0.11427968E-02
   0.44650   0.11172146E-02
   0.44750   0.10903866E-02
   0.44850   0.10618962E-02
   0.44950   0.10329576E-02
   0.45050   0.10047584E-02
   0.45150   0.97772514E-03
   0.45250   0.95168565E-03
   0.45350   0.92633039E-03
   0.45450   0.90149912E-03
   0.45550   0.87719166E-03
   0.45650   0.85345021E-03
   0.45750   0.83027658E-03
   0.45850   0.80763840E-03
   0.45950   0.78552327E-03
   0.46050   0.76397823E-03
   0.46150   0.74310036E-03
   0.46250   0.72298950E-03
   0.46350   0.70369832E-03
   0.46450   0.68521057E-03
   0.46550   0.66745467E-03
   0.46650   0.65034197E-03
   0.46750   0.63380774E-03
   0.46850   0.61783672E-03
   0.46950   0.60246437E-03
   0.47050   0.58775698E-03
   0.47150   0.57378277E-03
   0.47250   0.56058582E-03
   0.47350   0.54817152E-03
   0.47450   0.53650723E-03
   0.47550   0.52553421E-03
   0.47650   0.51518530E-03
   0.47750   0.50540286E-03
   0.47850   0.49615110E-03
   0.47950   0.48742015E-03
   0.48050   0.47922196E-03
   0.48150   0.47158022E-03
   0.48250   0.46451762E-03
   0.48350   0.45804441E-03
   0.48450   0.45215088E-03
   0.48550   0.44680547E-03
   0.48650   0.44195796E-03
   0.48750   0.43754719E-03
   0.48850   0.43351008E-03
   0.48950   0.42979096E-03
   0.49050   0.42634777E-03
   0.49150   0.42315465E-03
   0.49250   0.42020035E-03
   0.49350   0.41748365E-03
   0.49450   0.41500895E-03
   0.49550   0.41278981E-03
   0.49650   0.41088651E-03
   0.49750   0.40960466E-03
   0.49850   0.41004780E-03
   0.49950   0.41199222E-03
   0.50050   0.41355769E-03
   0.50150   0.41445036E-03
   0.50250   0.41473930E-03
   0.50350   0.41448546E-03
   0.50450   0.41372326E-03
   0.50550   0.41245553E-03
   0.50650   0.41063267E-03
   0.50750   0.40811268E-03
   0.50850   0.40460622E-03
   0.50950   0.39965770E-03
   0.51050   0.39298044E-03
   0.51150   0.38670588E-03
   0.51250   0.39382247E-03
   0.51350   0.44494041E-03
   0.51450   0.53184800E-03
   0.51550   0.58427913E-03
   0.51650   0.61232469E-03
   0.51750   0.63707173E-03
   0.51850   0.66588918E-03
   0.51950   0.70013839E-03
   0.52050   0.72975224E-03
   0.52150   0.71841915E-03
   0.52250   0.68151561E-03
   0.52350   0.64750446E-03
   0.52450   0.61966240E-03
   0.52550   0.59701828E-03
   0.52650   0.57854352E-03
   0.52750   0.56353660E-03
   0.52850   0.55156281E-03
   0.52950   0.54233539E-03
   0.53050   0.53548435E-03
   0.53150   0.52970945E-03
   0.53250   0.51838375E-03
   0.53350   0.47919969E-03
   0.53450   0.42008481E-03
   0.53550   0.36822713E-03
   0.53650   0.32555722E-03
   0.53750   0.28981231E-03
   0.53850   0.25918742E-03
   0.53950   0.23245274E-03
   0.54050   0.20879453E-03
   0.54150   0.18773862E-03
   0.54250   0.16919147E-03
   0.54350   0.15365952E-03
   0.54450   0.14279428E-03
   0.54550   0.14047451E-03
   0.54650   0.15461176E-03
   0.54750   0.20129255E-03
   0.54850   0.28945965E-03
   0.54950   0.34583721E-03
   0.55050   0.33526818E-03
   0.55150   0.30104187E-03
   0.55250   0.26761304E-03
   0.55350   0.24011964E-03
   0.55450   0.21819114E-03
   0.55550   0.20059290E-03
   0.55650   0.18624774E-03
   0.55750   0.17435987E-03
   0.55850   0.16436288E-03
   0.55950   0.15585410E-03
   0.56050   0.14854445E-03
   0.56150   0.14222409E-03
   0.56250   0.13673991E-03
   0.56350   0.13198120E-03
   0.56450   0.12787129E-03
   0.56550   0.12436412E-03
   0.56650   0.12144598E-03
   0.56750   0.11914528E-03
   0.56850   0.11755685E-03
   0.56950   0.11690038E-03
   0.57050   0.11766603E-03
   0.57150   0.12101355E-03
   0.57250   0.12993385E-03
   0.57350   0.15144338E-03
   0.57450   0.17726068E-03
   0.57550   0.14660030E-03
   0.57650   0.11894084E-03
   0.57750   0.11250075E-03
   0.57850   0.11937848E-03
   0.57950   0.18059206E-03
   0.58050   0.14740335E-03
   0.58150   0.11057699E-03
   0.58250   0.10683547E-03
   0.58350   0.10825637E-03
   0.58450   0.11301196E-03
   0.58550   0.12068054E-03
   0.58650   0.12638929E-03
   0.58750   0.12400435E-03
   0.58850   0.12884493E-03
   0.58950   0.19609489E-03
   0.59050   0.57193823E-03
   0.59150   0.62804529E-03
   0.59250   0.37793219E-03
   0.59350   0.90772593E-02
   0.59450   0.57666443E-01
   0.59550   0.16969593E-01
   0.59650   0.10201275E-01
   0.59750   0.86111026E-02
   0.59850   0.87666633E-02
   0.59950   0.78366669E-02
   0.60050   0.80410102E-02
   0.60150   0.63994979E-02
   0.60250   0.51301303E-02
   0.60350   0.52357623E-02
   0.60450   0.45866435E-02
   0.60550   0.44904249E-02
   0.60650   0.47861817E-02
   0.60750   0.43877349E-02
   0.60850   0.38777716E-02
   0.60950   0.36916360E-02
   0.61050   0.35528950E-02
   0.61150   0.33458516E-02
   0.61250   0.32475693E-02
   0.61350   0.32872742E-02
   0.61450   0.33255373E-02
   0.61550   0.32788881E-02
   0.61650   0.32046381E-02
   0.61750   0.31169397E-02
   0.61850   0.28628232E-02
   0.61950   0.25214702E-02
   0.62050   0.22372771E-02
   0.62150   0.20201774E-02
   0.62250   0.18630712E-02
   0.62350   0.17477801E-02
   0.62450   0.16491779E-02
   0.62550   0.15540149E-02
   0.62650   0.14589200E-02
   0.62750   0.13662468E-02
   0.62850   0.12789237E-02
   0.62950   0.11975438E-02
   0.63050   0.11207993E-02
   0.63150   0.10475666E-02
   0.63250   0.97854447E-03
   0.63350   0.91630738E-03
   0.63450   0.86405803E-03
   0.63550   0.82422653E-03
   0.63650   0.79776836E-03
   0.63750   0.78422436E-03
   0.63850   0.78218401E-03
   0.63950   0.78981434E-03
   0.64050   0.80525363E-03
   0.64150   0.82677644E-03
   0.64250   0.85273979E-03
   0.64350   0.88142190E-03
   0.64450   0.91090845E-03
   0.64550   0.93914056E-03
   0.64650   0.96413656E-03
   0.64750   0.98429236E-03
   0.64850   0.99861238E-03
   0.64950   0.10067590E-02
   0.65050   0.10089159E-02
   0.65150   0.10055567E-02
   0.65250   0.99723565E-03
   0.65350   0.98447944E-03
   0.65450   0.96778234E-03
   0.65550   0.94766461E-03
   0.65650   0.92473143E-03
   0.65750   0.89969195E-03
   0.65850   0.87332615E-03
   0.65950   0.84641820E-03
   0.66050   0.81968599E-03
   0.66150   0.79373241E-03
   0.66250   0.76902844E-03
   0.66350   0.74592500E-03
   0.66450   0.72468090E-03
   0.66550   0.70549437E-03
   0.66650   0.68852853E-03
   0.66750   0.67392556E-03
   0.66850   0.66181121E-03
   0.66950   0.65229146E-03
   0.67050   0.64544816E-03
   0.67150   0.64133533E-03
   0.67250   0.63998124E-03
   0.67350   0.64139528E-03
   0.67450   0.64558152E-03
   0.67550   0.65255602E-03
   0.67650   0.66236948E-03
   0.67750   0.67513197E-03
   0.67850   0.69104199E-03
   0.67950   0.71041979E-03
   0.68050   0.73374936E-03
   0.68150   0.76173327E-03
   0.68250   0.79536659E-03
   0.68350   0.83601970E-03
   0.68450   0.88540709E-03
   0.68550   0.94454794E-03
   0.68650   0.10048444E-02
   0.68750   0.10112526E-02
   0.68850   0.94899477E-03
   0.68950   0.88339276E-03
   0.69050   0.82914601E-03
   0.69150   0.78559783E-03
   0.69250   0.75100904E-03
   0.69350   0.72414015E-03
   0.69450   0.70432096E-03
   0.69550   0.69140515E-03
   0.69650   0.68580225E-03
   0.69750   0.68866462E-03
   0.69850   0.70238241E-03
   0.69950   0.73173462E-03
   0.70050   0.78529993E-03
   0.70150   0.84705738E-03
   0.70250   0.10019074E-02
   0.70350   0.21681606E-02
   0.70450   0.89961430E-03
   0.70550   0.81418053E-03
   0.70650   0.76884107E-03
   0.70750   0.78553089E-03
   0.70850   0.17872207E-02
   0.70950   0.12253535E-01
   0.71050   0.68180715E-02
   0.71150   0.16030151E-01
   0.71250   0.19470667E-01
   0.71350   0.79280324E-02
   0.71450   0.82924590E-02
   0.71550   0.18794363E-01
   0.71650   0.19984042E-01
   0.71750   0.21225970E-01
   0.71850   0.11660491E-01
   0.71950   0.96134609E-02
   0.72050   0.60205250E-02
   0.72150   0.41615050E-02
   0.72250   0.40787915E-02
   0.72350   0.43967245E-02
   0.72450   0.45927176E-02
   0.72550   0.48095891E-02
   0.72650   0.52311770E-02
   0.72750   0.56575118E-02
   0.72850   0.57230960E-02
   0.72950   0.55453498E-02
   0.73050   0.54163705E-02
   0.73150   0.53847884E-02
   0.73250   0.53590108E-02
   0.73350   0.52236994E-02
   0.73450   0.49594357E-02
   0.73550   0.46285847E-02
   0.73650   0.42820387E-02
   0.73750   0.39516864E-02
   0.73850   0.36565643E-02
   0.73950   0.34029651E-02
   0.74050   0.31867137E-02
   0.74150   0.30000638E-02
   0.74250   0.28388835E-02
   0.74350   0.27052525E-02
   0.74450   0.26043595E-02
   0.74550   0.25393229E-02
   0.74650   0.25078340E-02
   0.74750   0.25020256E-02
   0.74850   0.25114447E-02
   0.74950   0.25276695E-02
   0.75050   0.25475691E-02
   0.75150   0.25729639E-02
   0.75250   0.26075002E-02
   0.75350   0.26533552E-02
   0.75450   0.27095731E-02
   0.75550   0.27722756E-02
   0.75650   0.28361643E-02
   0.75750   0.28964400E-02
   0.75850   0.29502348E-02
   0.75950   0.29969770E-02
   0.76050   0.30377135E-02
   0.76150   0.30739233E-02
   0.76250   0.31064427E-02
   0.76350   0.31349028E-02
   0.76450   0.31577928E-02
   0.76550   0.31730442E-02
   0.76650   0.31788824E-02
   0.76750   0.31746158E-02
   0.76850   0.31610522E-02
   0.76950   0.31404120E-02
   0.77050   0.31158263E-02
   0.77150   0.30906782E-02
   0.77250   0.30680525E-02
   0.77350   0.30504549E-02
   0.77450   0.30398336E-02
   0.77550   0.30378320E-02
   0.77650   0.30461743E-02
   0.77750   0.30670764E-02
   0.77850   0.31036176E-02
   0.77950   0.31599815E-02
   0.78050   0.32408051E-02
   0.78150   0.33420851E-02
   0.78250   0.34110569E-02
   0.78350   0.34301125E-02
   0.78450   0.34470884E-02
   0.78550   0.34711421E-02
   0.78650   0.35003144E-02
   0.78750   0.35319861E-02
   0.78850   0.35642039E-02
   0.78950   0.35957778E-02
   0.79050   0.36262567E-02
   0.79150   0.36559657E-02
   0.79250   0.36861727E-02
   0.79350   0.37195031E-02
   0.79450   0.37608864E-02
   0.79550   0.38197238E-02
   0.79650   0.39144899E-02
   0.79750   0.40739528E-02
   0.79850   0.43038572E-02
   0.79950   0.14948283E-01
   0.80050   0.14076847E-01
   0.80150   0.74210605E-02
   0.80250   0.61560064E-02
   0.80350   0.62095118E-02
   0.80450   0.72248545E-02
   0.80550   0.10537486E-01
   0.80650   0.23328945E-01
   0.80750   0.25492227E-01
   0.80850   0.10907696E-01
   0.80950   0.84576290E-02
   0.81050   0.11133949E-01
   0.81150   0.20514196E-01
   0.81250   0.20239998E-01
   0.81350   0.27688282E-01
   0.81450   0.45957308E-01
   0.81550   0.46701144E-01
   0.81650   0.32846704E-01
   0.81750   0.22437554E-01
   0.81850   0.19973125E-01
   0.81950   0.22394309E-01
   0.82050   0.26899699E-01
   0.82150   0.30799370E-01
   0.82250   0.38147021E-01
   0.82350   0.43538023E-01
   0.82450   0.39035793E-01
   0.82550   0.33149946E-01
   0.82650   0.31545587E-01
   0.82750   0.33688489E-01
   0.82850   0.36223456E-01
   0.82950   0.35962850E-01
   0.83050   0.34074858E-01
   0.83150   0.33197906E-01
   0.83250   0.34203563E-01
   0.83350   0.36447670E-01
   0.83450   0.38548287E-01
   0.83550   0.39536271E-01
   0.83650   0.39538179E-01
   0.83750   0.39129455E-01
   0.83850   0.38646877E-01
   0.83950   0.38131483E-01
   0.84050   0.37514873E-01
   0.84150   0.36730960E-01
   0.84250   0.35604540E-01
   0.84350   0.33785254E-01
   0.84450   0.31761009E-01
   0.84550   0.30044779E-01
   0.84650   0.28765490E-01
   0.84750   0.28031232E-01
   0.84850   0.27811671E-01
   0.84950   0.27850362E-01
   0.85050   0.27919458E-01
   0.85150   0.27888991E-01
   0.85250   0.27728425E-01
   0.85350   0.27482416E-01
   0.85450   0.27220866E-01
   0.85550   0.26997527E-01
   0.85650   0.26833821E-01
   0.85750   0.26722340E-01
   0.85850   0.26638955E-01
   0.85950   0.26555793E-01
   0.86050   0.26450891E-01
   0.86150   0.26312755E-01
   0.86250   0.26140051E-01
   0.86350   0.25938325E-01
   0.86450   0.25716141E-01
   0.86550   0.25482362E-01
   0.86650   0.25245057E-01
   0.86750   0.25011664E-01
   0.86850   0.24789577E-01
   0.86950   0.24586540E-01
   0.87050   0.24410561E-01
   0.87150   0.24269467E-01
   0.87250   0.24170388E-01
   0.87350   0.24119439E-01
   0.87450   0.24121780E-01
   0.87550   0.24181988E-01
   0.87650   0.24304634E-01
   0.87750   0.24494937E-01
   0.87850   0.24759572E-01
   0.87950   0.25108028E-01
   0.88050   0.25555683E-01
   0.88150   0.26131678E-01
   0.88250   0.26900902E-01
   0.88350   0.28032955E-01
   0.88450   0.30049047E-01
   0.88550   0.34632020E-01
   0.88650   0.45899939E-01
   0.88750   0.10690553E+00
   0.88850   0.44477437E-01
   0.88950   0.35181191E-01
   0.89050   0.38465310E-01
   0.89150   0.47098678E-01
   0.89250   0.61183918E-01
   0.89350   0.70393518E-01
   0.89450   0.72621465E-01
   0.89550   0.76391287E-01
   0.89650   0.73101103E-01
   0.89750   0.66659711E-01
   0.89850   0.64330533E-01
   0.89950   0.67247212E-01
   0.90050   0.71093589E-01
   0.90150   0.78696638E-01
   0.90250   0.91803037E-01
   0.90350   0.10539794E+00
   0.90450   0.11203387E+00
   0.90550   0.11606190E+00
   0.90650   0.11935220E+00
   0.90750   0.12338010E+00
   0.90850   0.13065913E+00
   0.90950   0.14179336E+00
   0.91050   0.15401913E+00
   0.91150   0.16261883E+00
   0.91250   0.16364127E+00
   0.91350   0.15651841E+00
   0.91450   0.14537308E+00
   0.91550   0.13564722E+00
   0.91650   0.13000146E+00
   0.91750   0.12836555E+00
   0.91850   0.12975104E+00
   0.91950   0.13340250E+00
   0.92050   0.13908780E+00
   0.92150   0.14688829E+00
   0.92250   0.15686645E+00
   0.92350   0.16895156E+00
   0.92450   0.18319729E+00
   0.92550   0.19999893E+00
   0.92650   0.21942949E+00
   0.92750   0.23953825E+00
   0.92850   0.25527507E+00
   0.92950   0.26128972E+00
   0.93050   0.25724781E+00
   0.93150   0.24777913E+00
   0.93250   0.23762399E+00
   0.93350   0.22920060E+00
   0.93450   0.22316141E+00
   0.93550   0.21940257E+00
   0.93650   0.21761313E+00
   0.93750   0.21747328E+00
   0.93850   0.21871027E+00
   0.93950   0.22112176E+00
   0.94050   0.22460026E+00
   0.94150   0.22915234E+00
   0.94250   0.23489217E+00
   0.94350   0.24198666E+00
   0.94450   0.25054219E+00
   0.94550   0.26066062E+00
   0.94650   0.27238426E+00
   0.94750   0.28506207E+00
   0.94850   0.29795977E+00
   0.94950   0.30855286E+00
   0.95050   0.29340008E+00
   0.95150   0.29071561E+00
   0.95250   0.29790279E+00
   0.95350   0.31220454E+00
   0.95450   0.33418003E+00
   0.95550   0.35582477E+00
   0.95650   0.37356031E+00
   0.95750   0.38823766E+00
   0.95850   0.40194839E+00
   0.95950   0.41652793E+00
   0.96050   0.43327865E+00
   0.96150   0.45060599E+00
   0.96250   0.46445543E+00
   0.96350   0.47475970E+00
   0.96450   0.48323342E+00
   0.96550   0.49095693E+00
   0.96650   0.49921882E+00
   0.96750   0.50965714E+00
   0.96850   0.52333665E+00
   0.96950   0.54035008E+00
   0.97050   0.56081635E+00
   0.97150   0.58444047E+00
   0.97250   0.60744745E+00
   0.97350   0.62714547E+00
   0.97450   0.64554942E+00
   0.97550   0.66208363E+00
   0.97650   0.67475522E+00
   0.97750   0.68548840E+00
   0.97850   0.69666243E+00
   0.97950   0.70968175E+00
   0.98050   0.72489172E+00
   0.98150   0.74164295E+00
   0.98250   0.75872791E+00
   0.98350   0.77497590E+00
   0.98450   0.78975779E+00
   0.98550   0.80315208E+00
   0.98650   0.81566268E+00
   0.98750   0.82785058E+00
   0.98850   0.84027815E+00
   0.98950   0.85315901E+00
   0.99050   0.86595869E+00
   0.99150   0.87892616E+00
   0.99250   0.89260536E+00
   0.99350   0.90672320E+00
   0.99450   0.91954350E+00
   0.99550   0.92995626E+00
   0.99650   0.93645364E+00
   0.99750   0.93749171E+00
   0.99850   0.93254274E+00
   0.99950   0.92266995E+00
