# Transmission, k-averaged
# Date: 2021-05-13
#   E [eV]           T [G0]
   0.00050   0.51483572E-01
   0.00150   0.75514473E-01
   0.00250   0.53696357E-01
   0.00350   0.33925854E-01
   0.00450   0.28151587E-01
   0.00550   0.26719036E-01
   0.00650   0.12373528E-01
   0.00750   0.23741717E-02
   0.00850   0.75154088E-03
   0.00950   0.39367969E-02
   0.01050   0.97923642E-02
   0.01150   0.14833848E-01
   0.01250   0.11247364E-01
   0.01350   0.48173860E-01
   0.01450   0.95055997E-02
   0.01550   0.80753788E-02
   0.01650   0.70062339E-01
   0.01750   0.79344884E-02
   0.01850   0.42361575E-02
   0.01950   0.10997445E-01
   0.02050   0.50702225E-01
   0.02150   0.58394135E-02
   0.02250   0.39935475E-02
   0.02350   0.79465602E-02
   0.02450   0.76515384E-01
   0.02550   0.13376184E-01
   0.02650   0.49861842E-02
   0.02750   0.47310442E-02
   0.02850   0.98416861E-02
   0.02950   0.70993878E-01
   0.03050   0.20909419E-01
   0.03150   0.64866776E-02
   0.03250   0.47328793E-02
   0.03350   0.62030749E-02
   0.03450   0.16622301E-01
   0.03550   0.95384173E-01
   0.03650   0.17074374E-01
   0.03750   0.63706529E-02
   0.03850   0.46556885E-02
   0.03950   0.55206390E-02
   0.04050   0.11438037E-01
   0.04150   0.56734521E-01
   0.04250   0.27584326E-01
   0.04350   0.74802563E-02
   0.04450   0.43273107E-02
   0.04550   0.39945445E-02
   0.04650   0.50530382E-02
   0.04750   0.77096159E-02
   0.04850   0.98549360E-02
   0.04950   0.69649895E-02
   0.05050   0.40418166E-02
   0.05150   0.26876305E-02
   0.05250   0.21413143E-02
   0.05350   0.20072001E-02
   0.05450   0.21507619E-02
   0.05550   0.25029760E-02
   0.05650   0.28475879E-02
   0.05750   0.27582853E-02
   0.05850   0.22234833E-02
   0.05950   0.16808511E-02
   0.06050   0.13257423E-02
   0.06150   0.11397080E-02
   0.06250   0.10758527E-02
   0.06350   0.11029559E-02
   0.06450   0.11932198E-02
   0.06550   0.12919160E-02
   0.06650   0.13069826E-02
   0.06750   0.11892891E-02
   0.06850   0.10031172E-02
   0.06950   0.83613658E-03
   0.07050   0.72356296E-03
   0.07150   0.66562521E-03
   0.07250   0.65431761E-03
   0.07350   0.68167120E-03
   0.07450   0.73623843E-03
   0.07550   0.79426728E-03
   0.07650   0.81924530E-03
   0.07750   0.78819430E-03
   0.07850   0.71768177E-03
   0.07950   0.64373796E-03
   0.08050   0.59075246E-03
   0.08150   0.56759594E-03
   0.08250   0.57609670E-03
   0.08350   0.61623147E-03
   0.08450   0.68544497E-03
   0.08550   0.77268999E-03
   0.08650   0.85194962E-03
   0.08750   0.89064159E-03
   0.08850   0.87788602E-03
   0.08950   0.83583442E-03
   0.09050   0.79620071E-03
   0.09150   0.77698060E-03
   0.09250   0.77152770E-03
   0.09350   0.78005937E-03
   0.09450   0.80595590E-03
   0.09550   0.83366589E-03
   0.09650   0.84430823E-03
   0.09750   0.82686899E-03
   0.09850   0.78489218E-03
   0.09950   0.73200522E-03
   0.10050   0.68186416E-03
   0.10150   0.64263755E-03
   0.10250   0.61713072E-03
   0.10350   0.60469087E-03
   0.10450   0.60254236E-03
   0.10550   0.60629193E-03
   0.10650   0.61024335E-03
   0.10750   0.60833199E-03
   0.10850   0.59598440E-03
   0.10950   0.57202048E-03
   0.11050   0.53901854E-03
   0.11150   0.50170638E-03
   0.11250   0.46471748E-03
   0.11350   0.43119237E-03
   0.11450   0.40251986E-03
   0.11550   0.37870521E-03
   0.11650   0.35889185E-03
   0.11750   0.34192315E-03
   0.11850   0.32711177E-03
   0.11950   0.31538197E-03
   0.12050   0.31047541E-03
   0.12150   0.31922339E-03
   0.12250   0.35012100E-03
   0.12350   0.41066276E-03
   0.12450   0.50382299E-03
   0.12550   0.62340312E-03
   0.12650   0.75167714E-03
   0.12750   0.86626498E-03
   0.12850   0.95276086E-03
   0.12950   0.10093704E-02
   0.13050   0.10416578E-02
   0.13150   0.10564837E-02
   0.13250   0.10594407E-02
   0.13350   0.10545654E-02
   0.13450   0.10446825E-02
   0.13550   0.10317449E-02
   0.13650   0.10170816E-02
   0.13750   0.10015796E-02
   0.13850   0.98582439E-03
   0.13950   0.97020587E-03
   0.14050   0.95498998E-03
   0.14150   0.94036193E-03
   0.14250   0.92644687E-03
   0.14350   0.91331732E-03
   0.14450   0.90099586E-03
   0.14550   0.88945829E-03
   0.14650   0.87864092E-03
   0.14750   0.86845353E-03
   0.14850   0.85879496E-03
   0.14950   0.84957050E-03
   0.15050   0.84070710E-03
   0.15150   0.83216367E-03
   0.15250   0.82393538E-03
   0.15350   0.81605028E-03
   0.15450   0.80856046E-03
   0.15550   0.80152880E-03
   0.15650   0.79501461E-03
   0.15750   0.78906032E-03
   0.15850   0.78368146E-03
   0.15950   0.77886158E-03
   0.16050   0.77455211E-03
   0.16150   0.77067770E-03
   0.16250   0.76714496E-03
   0.16350   0.76385378E-03
   0.16450   0.76070917E-03
   0.16550   0.75763016E-03
   0.16650   0.75455423E-03
   0.16750   0.75143413E-03
   0.16850   0.74822363E-03
   0.16950   0.74484735E-03
   0.17050   0.74114214E-03
   0.17150   0.73673716E-03
   0.17250   0.73077081E-03
   0.17350   0.72107947E-03
   0.17450   0.70133840E-03
   0.17550   0.65340003E-03
   0.17650   0.57756627E-03
   0.17750   0.51435170E-03
   0.17850   0.46709966E-03
   0.17950   0.43033907E-03
   0.18050   0.40061219E-03
   0.18150   0.37588421E-03
   0.18250   0.35488722E-03
   0.18350   0.33678341E-03
   0.18450   0.32099147E-03
   0.18550   0.30709145E-03
   0.18650   0.29476971E-03
   0.18750   0.28378508E-03
   0.18850   0.27394749E-03
   0.18950   0.26510388E-03
   0.19050   0.25712888E-03
   0.19150   0.24991838E-03
   0.19250   0.24338516E-03
   0.19350   0.23745587E-03
   0.19450   0.23206895E-03
   0.19550   0.22717327E-03
   0.19650   0.22272702E-03
   0.19750   0.21869726E-03
   0.19850   0.21505944E-03
   0.19950   0.21179749E-03
   0.20050   0.20890420E-03
   0.20150   0.20638228E-03
   0.20250   0.20424671E-03
   0.20350   0.20252912E-03
   0.20450   0.20128596E-03
   0.20550   0.20061462E-03
   0.20650   0.20068546E-03
   0.20750   0.20181049E-03
   0.20850   0.20460263E-03
   0.20950   0.21038784E-03
   0.21050   0.22242665E-03
   0.21150   0.25013636E-03
   0.21250   0.32389283E-03
   0.21350   0.46428179E-03
   0.21450   0.37455253E-03
   0.21550   0.26515211E-03
   0.21650   0.22857155E-03
   0.21750   0.22002352E-03
   0.21850   0.22388098E-03
   0.21950   0.22936976E-03
   0.22050   0.23447398E-03
   0.22150   0.23944692E-03
   0.22250   0.24455544E-03
   0.22350   0.24998584E-03
   0.22450   0.25588335E-03
   0.22550   0.26238084E-03
   0.22650   0.26961777E-03
   0.22750   0.27775607E-03
   0.22850   0.28699759E-03
   0.22950   0.29760692E-03
   0.23050   0.30994372E-03
   0.23150   0.32450314E-03
   0.23250   0.34191232E-03
   0.23350   0.36237173E-03
   0.23450   0.38037176E-03
   0.23550   0.37836135E-03
   0.23650   0.36426552E-03
   0.23750   0.34932501E-03
   0.23850   0.33557607E-03
   0.23950   0.32316236E-03
   0.24050   0.31193602E-03
   0.24150   0.30172479E-03
   0.24250   0.29237889E-03
   0.24350   0.28377544E-03
   0.24450   0.27581476E-03
   0.24550   0.26841578E-03
   0.24650   0.26151215E-03
   0.24750   0.25504918E-03
   0.24850   0.24898144E-03
   0.24950   0.24327103E-03
   0.25050   0.23788591E-03
   0.25150   0.23279888E-03
   0.25250   0.22798663E-03
   0.25350   0.22342891E-03
   0.25450   0.21910795E-03
   0.25550   0.21500803E-03
   0.25650   0.21111491E-03
   0.25750   0.20741578E-03
   0.25850   0.20389886E-03
   0.25950   0.20055327E-03
   0.26050   0.19736904E-03
   0.26150   0.19433686E-03
   0.26250   0.19144818E-03
   0.26350   0.18869519E-03
   0.26450   0.18607070E-03
   0.26550   0.18356823E-03
   0.26650   0.18118195E-03
   0.26750   0.17890667E-03
   0.26850   0.17673781E-03
   0.26950   0.17467135E-03
   0.27050   0.17270379E-03
   0.27150   0.17083206E-03
   0.27250   0.16905350E-03
   0.27350   0.16736577E-03
   0.27450   0.16576677E-03
   0.27550   0.16425463E-03
   0.27650   0.16282759E-03
   0.27750   0.16148409E-03
   0.27850   0.16022260E-03
   0.27950   0.15904167E-03
   0.28050   0.15793994E-03
   0.28150   0.15691615E-03
   0.28250   0.15596907E-03
   0.28350   0.15509759E-03
   0.28450   0.15430058E-03
   0.28550   0.15357698E-03
   0.28650   0.15292564E-03
   0.28750   0.15234506E-03
   0.28850   0.15183323E-03
   0.28950   0.15138691E-03
   0.29050   0.15100074E-03
   0.29150   0.15066539E-03
   0.29250   0.15036399E-03
   0.29350   0.15006507E-03
   0.29450   0.14970639E-03
   0.29550   0.14915506E-03
   0.29650   0.14809122E-03
   0.29750   0.14559891E-03
   0.29850   0.13864640E-03
   0.29950   0.12338406E-03
   0.30050   0.10796978E-03
   0.30150   0.96284813E-04
   0.30250   0.87291373E-04
   0.30350   0.80099926E-04
   0.30450   0.74175674E-04
   0.30550   0.69186768E-04
   0.30650   0.64915344E-04
   0.30750   0.61211169E-04
   0.30850   0.57966397E-04
   0.30950   0.55101125E-04
   0.31050   0.52554584E-04
   0.31150   0.50279581E-04
   0.31250   0.48238857E-04
   0.31350   0.46402594E-04
   0.31450   0.44746699E-04
   0.31550   0.43251577E-04
   0.31650   0.41901250E-04
   0.31750   0.40682746E-04
   0.31850   0.39585619E-04
   0.31950   0.38601684E-04
   0.32050   0.37724807E-04
   0.32150   0.36950860E-04
   0.32250   0.36277768E-04
   0.32350   0.35705707E-04
   0.32450   0.35237477E-04
   0.32550   0.34879147E-04
   0.32650   0.34641074E-04
   0.32750   0.34539520E-04
   0.32850   0.34599252E-04
   0.32950   0.34857807E-04
   0.33050   0.35372635E-04
   0.33150   0.36233523E-04
   0.33250   0.37584858E-04
   0.33350   0.39666775E-04
   0.33450   0.42891690E-04
   0.33550   0.47975391E-04
   0.33650   0.56051664E-04
   0.33750   0.67872665E-04
   0.33850   0.78107318E-04
   0.33950   0.81506114E-04
   0.34050   0.79382611E-04
   0.34150   0.58063539E-04
   0.34250   0.42599961E-04
   0.34350   0.34366389E-04
   0.34450   0.29972482E-04
   0.34550   0.27505066E-04
   0.34650   0.26053785E-04
   0.34750   0.25175348E-04
   0.34850   0.24641769E-04
   0.34950   0.24329216E-04
   0.35050   0.24167181E-04
   0.35150   0.24114004E-04
   0.35250   0.24144460E-04
   0.35350   0.24243151E-04
   0.35450   0.24400922E-04
   0.35550   0.24612867E-04
   0.35650   0.24877352E-04
   0.35750   0.25195797E-04
   0.35850   0.25573434E-04
   0.35950   0.26021988E-04
   0.36050   0.26568232E-04
   0.36150   0.27284641E-04
   0.36250   0.28381828E-04
   0.36350   0.29931842E-04
   0.36450   0.31478899E-04
   0.36550   0.32945049E-04
   0.36650   0.34388489E-04
   0.36750   0.35855435E-04
   0.36850   0.37380585E-04
   0.36950   0.38993549E-04
   0.37050   0.40722854E-04
   0.37150   0.42598760E-04
   0.37250   0.44655713E-04
   0.37350   0.46935042E-04
   0.37450   0.49488495E-04
   0.37550   0.52383366E-04
   0.37650   0.55710359E-04
   0.37750   0.59596339E-04
   0.37850   0.64225052E-04
   0.37950   0.69866073E-04
   0.38050   0.76859767E-04
   0.38150   0.84901549E-04
   0.38250   0.89242509E-04
   0.38350   0.87696055E-04
   0.38450   0.84639127E-04
   0.38550   0.81517552E-04
   0.38650   0.78592828E-04
   0.38750   0.75896409E-04
   0.38850   0.73411393E-04
   0.38950   0.71112154E-04
   0.39050   0.68973932E-04
   0.39150   0.66974993E-04
   0.39250   0.65096683E-04
   0.39350   0.63323052E-04
   0.39450   0.61640341E-04
   0.39550   0.60036517E-04
   0.39650   0.58500911E-04
   0.39750   0.57023892E-04
   0.39850   0.55596593E-04
   0.39950   0.54210679E-04
   0.40050   0.52858137E-04
   0.40150   0.51531057E-04
   0.40250   0.50221424E-04
   0.40350   0.48920858E-04
   0.40450   0.47620309E-04
   0.40550   0.46309629E-04
   0.40650   0.44976936E-04
   0.40750   0.43607604E-04
   0.40850   0.42182415E-04
   0.40950   0.40673967E-04
   0.41050   0.39038736E-04
   0.41150   0.37197035E-04
   0.41250   0.34973982E-04
   0.41350   0.31915115E-04
   0.41450   0.27400079E-04
   0.41550   0.23138566E-04
   0.41650   0.20276651E-04
   0.41750   0.18471395E-04
   0.41850   0.17569457E-04
   0.41950   0.17672841E-04
   0.42050   0.19061261E-04
   0.42150   0.21965212E-04
   0.42250   0.25975181E-04
   0.42350   0.29586921E-04
   0.42450   0.31245574E-04
   0.42550   0.30848332E-04
   0.42650   0.29311977E-04
   0.42750   0.27458664E-04
   0.42850   0.25700376E-04
   0.42950   0.24176488E-04
   0.43050   0.22904947E-04
   0.43150   0.21861568E-04
   0.43250   0.21012673E-04
   0.43350   0.20326554E-04
   0.43450   0.19776595E-04
   0.43550   0.19341440E-04
   0.43650   0.19004268E-04
   0.43750   0.18751918E-04
   0.43850   0.18574121E-04
   0.43950   0.18462862E-04
   0.44050   0.18411904E-04
   0.44150   0.18416395E-04
   0.44250   0.18472600E-04
   0.44350   0.18577666E-04
   0.44450   0.18729459E-04
   0.44550   0.18926432E-04
   0.44650   0.19167508E-04
   0.44750   0.19451996E-04
   0.44850   0.19779518E-04
   0.44950   0.20149926E-04
   0.45050   0.20563244E-04
   0.45150   0.21019592E-04
   0.45250   0.21519105E-04
   0.45350   0.22061842E-04
   0.45450   0.22647679E-04
   0.45550   0.23276176E-04
   0.45650   0.23946397E-04
   0.45750   0.24656709E-04
   0.45850   0.25404508E-04
   0.45950   0.26185862E-04
   0.46050   0.26995085E-04
   0.46150   0.27824157E-04
   0.46250   0.28661996E-04
   0.46350   0.29493547E-04
   0.46450   0.30298574E-04
   0.46550   0.31050156E-04
   0.46650   0.31712785E-04
   0.46750   0.32239990E-04
   0.46850   0.32571552E-04
   0.46950   0.32630713E-04
   0.47050   0.32322903E-04
   0.47150   0.31541760E-04
   0.47250   0.30202835E-04
   0.47350   0.28384095E-04
   0.47450   0.26911823E-04
   0.47550   0.30027195E-04
   0.47650   0.57077483E-04
   0.47750   0.14293034E-03
   0.47850   0.17489829E-03
   0.47950   0.14103201E-03
   0.48050   0.11272538E-03
   0.48150   0.94148025E-04
   0.48250   0.82132115E-04
   0.48350   0.76380755E-04
   0.48450   0.80033031E-04
   0.48550   0.98427081E-04
   0.48650   0.13067240E-03
   0.48750   0.16911428E-03
   0.48850   0.22585654E-03
   0.48950   0.29595403E-03
   0.49050   0.31799107E-03
   0.49150   0.27434199E-03
   0.49250   0.21791761E-03
   0.49350   0.19188502E-03
   0.49450   0.21754236E-03
   0.49550   0.30328525E-03
   0.49650   0.41712506E-03
   0.49750   0.48314765E-03
   0.49850   0.52918441E-03
   0.49950   0.65249566E-03
   0.50050   0.93258644E-03
   0.50150   0.11737040E-02
   0.50250   0.24459679E-02
   0.50350   0.16461691E-02
   0.50450   0.92554344E-02
   0.50550   0.21559629E-02
   0.50650   0.12596117E-02
   0.50750   0.16189954E-02
   0.50850   0.24037934E-02
   0.50950   0.30311274E-02
   0.51050   0.31601677E-02
   0.51150   0.29111744E-02
   0.51250   0.25378647E-02
   0.51350   0.21923764E-02
   0.51450   0.19091999E-02
   0.51550   0.16733372E-02
   0.51650   0.14695647E-02
   0.51750   0.12984268E-02
   0.51850   0.11771753E-02
   0.51950   0.11287438E-02
   0.52050   0.11580326E-02
   0.52150   0.12438555E-02
   0.52250   0.13751072E-02
   0.52350   0.15393968E-02
   0.52450   0.17147590E-02
   0.52550   0.18732119E-02
   0.52650   0.19926720E-02
   0.52750   0.20711462E-02
   0.52850   0.21222583E-02
   0.52950   0.21572863E-02
   0.53050   0.21750059E-02
   0.53150   0.21646277E-02
   0.53250   0.20994919E-02
   0.53350   0.19051456E-02
   0.53450   0.16483634E-02
   0.53550   0.14420183E-02
   0.53650   0.12837991E-02
   0.53750   0.11581531E-02
   0.53850   0.10550304E-02
   0.53950   0.96926629E-03
   0.54050   0.89832774E-03
   0.54150   0.84040686E-03
   0.54250   0.79341535E-03
   0.54350   0.75481331E-03
   0.54450   0.72193146E-03
   0.54550   0.69246034E-03
   0.54650   0.66485174E-03
   0.54750   0.63844980E-03
   0.54850   0.61330380E-03
   0.54950   0.58978488E-03
   0.55050   0.56820957E-03
   0.55150   0.54861535E-03
   0.55250   0.53071912E-03
   0.55350   0.51400752E-03
   0.55450   0.49788371E-03
   0.55550   0.48179834E-03
   0.55650   0.46531527E-03
   0.55750   0.44809160E-03
   0.55850   0.42978779E-03
   0.55950   0.40995385E-03
   0.56050   0.38795939E-03
   0.56150   0.36306589E-03
   0.56250   0.33477199E-03
   0.56350   0.30350906E-03
   0.56450   0.27139374E-03
   0.56550   0.24208786E-03
   0.56650   0.21905598E-03
   0.56750   0.20355839E-03
   0.56850   0.19453607E-03
   0.56950   0.19000692E-03
   0.57050   0.18817441E-03
   0.57150   0.18774894E-03
   0.57250   0.18789581E-03
   0.57350   0.18811348E-03
   0.57450   0.18812904E-03
   0.57550   0.18782100E-03
   0.57650   0.18716433E-03
   0.57750   0.18619107E-03
   0.57850   0.18496180E-03
   0.57950   0.18354524E-03
   0.58050   0.18200485E-03
   0.58150   0.18039164E-03
   0.58250   0.17874238E-03
   0.58350   0.17708159E-03
   0.58450   0.17542580E-03
   0.58550   0.17378843E-03
   0.58650   0.17218346E-03
   0.58750   0.17062727E-03
   0.58850   0.16913783E-03
   0.58950   0.16773125E-03
   0.59050   0.16641624E-03
   0.59150   0.16518607E-03
   0.59250   0.16400791E-03
   0.59350   0.16280721E-03
   0.59450   0.16144234E-03
   0.59550   0.15966002E-03
   0.59650   0.15701282E-03
   0.59750   0.15270775E-03
   0.59850   0.14535431E-03
   0.59950   0.13271353E-03
   0.60050   0.11242570E-03
   0.60150   0.88099543E-04
   0.60250   0.86256063E-04
   0.60350   0.14162717E-03
   0.60450   0.20956653E-03
   0.60550   0.23478540E-03
   0.60650   0.23429589E-03
   0.60750   0.23015986E-03
   0.60850   0.22902763E-03
   0.60950   0.23149158E-03
   0.61050   0.23702621E-03
   0.61150   0.24520708E-03
   0.61250   0.25588839E-03
   0.61350   0.26919183E-03
   0.61450   0.28549126E-03
   0.61550   0.30537928E-03
   0.61650   0.32926258E-03
   0.61750   0.35373785E-03
   0.61850   0.35808884E-03
   0.61950   0.33963509E-03
   0.62050   0.32007214E-03
   0.62150   0.30468297E-03
   0.62250   0.29532553E-03
   0.62350   0.29043367E-03
   0.62450   0.28583306E-03
   0.62550   0.28115258E-03
   0.62650   0.27664236E-03
   0.62750   0.27243726E-03
   0.62850   0.26859096E-03
   0.62950   0.26511616E-03
   0.63050   0.26200406E-03
   0.63150   0.25923364E-03
   0.63250   0.25677637E-03
   0.63350   0.25459944E-03
   0.63450   0.25266808E-03
   0.63550   0.25094760E-03
   0.63650   0.24940516E-03
   0.63750   0.24801120E-03
   0.63850   0.24674050E-03
   0.63950   0.24557256E-03
   0.64050   0.24449173E-03
   0.64150   0.24348676E-03
   0.64250   0.24255007E-03
   0.64350   0.24167685E-03
   0.64450   0.24086413E-03
   0.64550   0.24010988E-03
   0.64650   0.23941245E-03
   0.64750   0.23877018E-03
   0.64850   0.23818140E-03
   0.64950   0.23764459E-03
   0.65050   0.23715898E-03
   0.65150   0.23672513E-03
   0.65250   0.23634569E-03
   0.65350   0.23602613E-03
   0.65450   0.23577537E-03
   0.65550   0.23560623E-03
   0.65650   0.23553576E-03
   0.65750   0.23558523E-03
   0.65850   0.23578013E-03
   0.65950   0.23614988E-03
   0.66050   0.23672757E-03
   0.66150   0.23754980E-03
   0.66250   0.23865649E-03
   0.66350   0.24009110E-03
   0.66450   0.24190113E-03
   0.66550   0.24413918E-03
   0.66650   0.24686486E-03
   0.66750   0.25014757E-03
   0.66850   0.25407155E-03
   0.66950   0.25874388E-03
   0.67050   0.26430897E-03
   0.67150   0.27097666E-03
   0.67250   0.27908359E-03
   0.67350   0.28924958E-03
   0.67450   0.30286610E-03
   0.67550   0.32413009E-03
   0.67650   0.37307723E-03
   0.67750   0.37913478E-03
   0.67850   0.31410687E-03
   0.67950   0.33614517E-03
   0.68050   0.36100528E-03
   0.68150   0.38884397E-03
   0.68250   0.42148042E-03
   0.68350   0.46243149E-03
   0.68450   0.52332535E-03
   0.68550   0.64729329E-03
   0.68650   0.94658433E-03
   0.68750   0.13941936E-02
   0.68850   0.15710854E-02
   0.68950   0.14828965E-02
   0.69050   0.12978939E-02
   0.69150   0.10567826E-02
   0.69250   0.53573553E-02
   0.69350   0.18925319E-02
   0.69450   0.24487525E-02
   0.69550   0.17072378E-01
   0.69650   0.62041041E-02
   0.69750   0.25279429E-02
   0.69850   0.22536123E-02
   0.69950   0.21793756E-02
   0.70050   0.21810685E-02
   0.70150   0.23016576E-02
   0.70250   0.24288448E-02
   0.70350   0.25253240E-02
   0.70450   0.25852150E-02
   0.70550   0.24746277E-02
   0.70650   0.22000582E-02
   0.70750   0.19677693E-02
   0.70850   0.17962692E-02
   0.70950   0.16681346E-02
   0.71050   0.15681703E-02
   0.71150   0.14843360E-02
   0.71250   0.14080126E-02
   0.71350   0.13340804E-02
   0.71450   0.12602715E-02
   0.71550   0.11861629E-02
   0.71650   0.11122955E-02
   0.71750   0.10396651E-02
   0.71850   0.96955203E-03
   0.71950   0.90345962E-03
   0.72050   0.84292894E-03
   0.72150   0.78921177E-03
   0.72250   0.74296450E-03
   0.72350   0.70412387E-03
   0.72450   0.67199190E-03
   0.72550   0.64545334E-03
   0.72650   0.62323135E-03
   0.72750   0.60411746E-03
   0.72850   0.58714877E-03
   0.72950   0.57174521E-03
   0.73050   0.55789232E-03
   0.73150   0.54665911E-03
   0.73250   0.54038246E-03
   0.73350   0.53460465E-03
   0.73450   0.52445190E-03
   0.73550   0.51137770E-03
   0.73650   0.49685844E-03
   0.73750   0.48184191E-03
   0.73850   0.46696089E-03
   0.73950   0.45264160E-03
   0.74050   0.43915655E-03
   0.74150   0.42665855E-03
   0.74250   0.41520924E-03
   0.74350   0.40480346E-03
   0.74450   0.39538939E-03
   0.74550   0.38688397E-03
   0.74650   0.37918548E-03
   0.74750   0.37218432E-03
   0.74850   0.36577362E-03
   0.74950   0.35985932E-03
   0.75050   0.35436850E-03
   0.75150   0.34925458E-03
   0.75250   0.34449820E-03
   0.75350   0.34010378E-03
   0.75450   0.33609313E-03
   0.75550   0.33249761E-03
   0.75650   0.32935067E-03
   0.75750   0.32668214E-03
   0.75850   0.32451467E-03
   0.75950   0.32286253E-03
   0.76050   0.32173214E-03
   0.76150   0.32112401E-03
   0.76250   0.32103524E-03
   0.76350   0.32146272E-03
   0.76450   0.32240638E-03
   0.76550   0.32387304E-03
   0.76650   0.32587978E-03
   0.76750   0.32845789E-03
   0.76850   0.33165596E-03
   0.76950   0.33554295E-03
   0.77050   0.34021004E-03
   0.77150   0.34577213E-03
   0.77250   0.35236802E-03
   0.77350   0.36015993E-03
   0.77450   0.36933206E-03
   0.77550   0.38008791E-03
   0.77650   0.39264461E-03
   0.77750   0.40721864E-03
   0.77850   0.42398181E-03
   0.77950   0.44289790E-03
   0.78050   0.46299098E-03
   0.78150   0.47851857E-03
   0.78250   0.47281513E-03
   0.78350   0.45646357E-03
   0.78450   0.44740914E-03
   0.78550   0.44603719E-03
   0.78650   0.45058641E-03
   0.78750   0.45971386E-03
   0.78850   0.47247231E-03
   0.78950   0.48816481E-03
   0.79050   0.50624943E-03
   0.79150   0.52628369E-03
   0.79250   0.54789195E-03
   0.79350   0.57074649E-03
   0.79450   0.59455668E-03
   0.79550   0.61906187E-03
   0.79650   0.64402685E-03
   0.79750   0.66923699E-03
   0.79850   0.69449359E-03
   0.79950   0.71960775E-03
   0.80050   0.74439368E-03
   0.80150   0.76866173E-03
   0.80250   0.79221185E-03
   0.80350   0.81482861E-03
   0.80450   0.83627924E-03
   0.80550   0.85631612E-03
   0.80650   0.87468646E-03
   0.80750   0.89115452E-03
   0.80850   0.90554985E-03
   0.80950   0.91788144E-03
   0.81050   0.92865940E-03
   0.81150   0.94005815E-03
   0.81250   0.96196798E-03
   0.81350   0.10711420E-02
   0.81450   0.21482236E-02
   0.81550   0.12092484E-02
   0.81650   0.10439589E-02
   0.81750   0.10295328E-02
   0.81850   0.10854017E-02
   0.81950   0.13037306E-02
   0.82050   0.26620422E-02
   0.82150   0.23907639E-01
   0.82250   0.10458525E-01
   0.82350   0.35955596E-02
   0.82450   0.33482059E-02
   0.82550   0.44919103E-02
   0.82650   0.33175331E-01
   0.82750   0.73916920E-01
   0.82850   0.18537708E+00
   0.82950   0.20741828E+00
   0.83050   0.77822231E-01
   0.83150   0.32015588E-01
   0.83250   0.20660641E-01
   0.83350   0.17313259E-01
   0.83450   0.14598029E-01
   0.83550   0.12219885E-01
   0.83650   0.10742436E-01
   0.83750   0.10133347E-01
   0.83850   0.10063945E-01
   0.83950   0.10219053E-01
   0.84050   0.10437109E-01
   0.84150   0.10510890E-01
   0.84250   0.10222672E-01
   0.84350   0.96417880E-02
   0.84450   0.91594467E-02
   0.84550   0.89248978E-02
   0.84650   0.88819945E-02
   0.84750   0.89489808E-02
   0.84850   0.90131816E-02
   0.84950   0.91107618E-02
   0.85050   0.92567755E-02
   0.85150   0.94154263E-02
   0.85250   0.95626125E-02
   0.85350   0.96898768E-02
   0.85450   0.97979885E-02
   0.85550   0.98915305E-02
   0.85650   0.99758469E-02
   0.85750   0.10055608E-01
   0.85850   0.10134573E-01
   0.85950   0.10215971E-01
   0.86050   0.10302440E-01
   0.86150   0.10395025E-01
   0.86250   0.10492027E-01
   0.86350   0.10589080E-01
   0.86450   0.10681001E-01
   0.86550   0.10764504E-01
   0.86650   0.10840055E-01
   0.86750   0.10911765E-01
   0.86850   0.10985748E-01
   0.86950   0.11068375E-01
   0.87050   0.11165665E-01
   0.87150   0.11284028E-01
   0.87250   0.11431574E-01
   0.87350   0.11618683E-01
   0.87450   0.11856983E-01
   0.87550   0.12156964E-01
   0.87650   0.12525406E-01
   0.87750   0.12963841E-01
   0.87850   0.13468637E-01
   0.87950   0.14032531E-01
   0.88050   0.14646890E-01
   0.88150   0.15303740E-01
   0.88250   0.15996825E-01
   0.88350   0.16721632E-01
   0.88450   0.17474921E-01
   0.88550   0.18254375E-01
   0.88650   0.19058658E-01
   0.88750   0.19887796E-01
   0.88850   0.20743648E-01
   0.88950   0.21630360E-01
   0.89050   0.22554718E-01
   0.89150   0.23526216E-01
   0.89250   0.24556696E-01
   0.89350   0.25659496E-01
   0.89450   0.26848186E-01
   0.89550   0.28135354E-01
   0.89650   0.29532403E-01
   0.89750   0.31052947E-01
   0.89850   0.32726292E-01
   0.89950   0.34641050E-01
   0.90050   0.37053537E-01
   0.90150   0.40026151E-01
   0.90250   0.42873066E-01
   0.90350   0.45457944E-01
   0.90450   0.47866333E-01
   0.90550   0.50117780E-01
   0.90650   0.52197825E-01
   0.90750   0.54080863E-01
   0.90850   0.55746760E-01
   0.90950   0.57198949E-01
   0.91050   0.58479548E-01
   0.91150   0.59674207E-01
   0.91250   0.60908128E-01
   0.91350   0.62392738E-01
   0.91450   0.66984087E-01
   0.91550   0.10269549E+00
   0.91650   0.75877503E-01
   0.91750   0.81014588E-01
   0.91850   0.93777858E-01
   0.91950   0.11740487E+00
   0.92050   0.11345240E+00
   0.92150   0.11688673E+00
   0.92250   0.13700570E+00
   0.92350   0.16178003E+00
   0.92450   0.19641197E+00
   0.92550   0.24444211E+00
   0.92650   0.27999523E+00
   0.92750   0.29635417E+00
   0.92850   0.32823244E+00
   0.92950   0.37048915E+00
   0.93050   0.39608482E+00
   0.93150   0.39926231E+00
   0.93250   0.39058393E+00
   0.93350   0.35875368E+00
   0.93450   0.32545629E+00
   0.93550   0.29825172E+00
   0.93650   0.26970804E+00
   0.93750   0.23960996E+00
   0.93850   0.21837252E+00
   0.93950   0.20871013E+00
   0.94050   0.20675538E+00
   0.94150   0.20913526E+00
   0.94250   0.21307985E+00
   0.94350   0.21535076E+00
   0.94450   0.21328951E+00
   0.94550   0.20800303E+00
   0.94650   0.20443840E+00
   0.94750   0.20541723E+00
   0.94850   0.20973675E+00
   0.94950   0.21528798E+00
   0.95050   0.22121377E+00
   0.95150   0.22763990E+00
   0.95250   0.23481049E+00
   0.95350   0.24275048E+00
   0.95450   0.25140047E+00
   0.95550   0.26146084E+00
   0.95650   0.27359870E+00
   0.95750   0.28722486E+00
   0.95850   0.30161974E+00
   0.95950   0.31506363E+00
   0.96050   0.32589629E+00
   0.96150   0.33388573E+00
   0.96250   0.34017643E+00
   0.96350   0.34590864E+00
   0.96450   0.35086668E+00
   0.96550   0.35392958E+00
   0.96650   0.35521704E+00
   0.96750   0.35638571E+00
   0.96850   0.35831887E+00
   0.96950   0.36043051E+00
   0.97050   0.36278570E+00
   0.97150   0.36769116E+00
   0.97250   0.37810779E+00
   0.97350   0.39427653E+00
   0.97450   0.40907979E+00
   0.97550   0.41098079E+00
   0.97650   0.40256137E+00
   0.97750   0.39496088E+00
   0.97850   0.39176440E+00
   0.97950   0.39244652E+00
   0.98050   0.39692605E+00
   0.98150   0.40662974E+00
   0.98250   0.42287841E+00
   0.98350   0.44851834E+00
   0.98450   0.48595816E+00
   0.98550   0.52226776E+00
   0.98650   0.52893120E+00
   0.98750   0.51866585E+00
   0.98850   0.50728881E+00
   0.98950   0.51537734E+00
   0.99050   0.53298646E+00
   0.99150   0.55415779E+00
   0.99250   0.58130538E+00
   0.99350   0.62050408E+00
   0.99450   0.65297508E+00
   0.99550   0.65445936E+00
   0.99650   0.67013985E+00
   0.99750   0.68913329E+00
   0.99850   0.69827455E+00
   0.99950   0.69996357E+00
