# Transmission, k-averaged
# Date: 2021-05-13
#   E [eV]           T [G0]
   0.00050   0.20299698E-02
   0.00150   0.79895593E-02
   0.00250   0.10260968E-01
   0.00350   0.68272799E-02
   0.00450   0.34842559E-02
   0.00550   0.15091206E-02
   0.00650   0.25675510E-03
   0.00750   0.13321219E-04
   0.00850   0.36432052E-05
   0.00950   0.36313890E-04
   0.01050   0.25042999E-03
   0.01150   0.80608844E-03
   0.01250   0.10813789E-02
   0.01350   0.74430811E-02
   0.01450   0.21906518E-02
   0.01550   0.25709702E-02
   0.01650   0.28776346E-01
   0.01750   0.39310753E-02
   0.01850   0.23680155E-02
   0.01950   0.65705073E-02
   0.02050   0.31213237E-01
   0.02150   0.36156063E-02
   0.02250   0.24477227E-02
   0.02350   0.47834488E-02
   0.02450   0.45190074E-01
   0.02550   0.77709267E-02
   0.02650   0.28586185E-02
   0.02750   0.26857133E-02
   0.02850   0.55558621E-02
   0.02950   0.40070113E-01
   0.03050   0.11866579E-01
   0.03150   0.37206223E-02
   0.03250   0.27559837E-02
   0.03350   0.36832932E-02
   0.03450   0.10114443E-01
   0.03550   0.59809923E-01
   0.03650   0.11099406E-01
   0.03750   0.43206098E-02
   0.03850   0.33173370E-02
   0.03950   0.41684303E-02
   0.04050   0.92594810E-02
   0.04150   0.50092414E-01
   0.04250   0.27294865E-01
   0.04350   0.87074582E-02
   0.04450   0.65177339E-02
   0.04550   0.85288445E-02
   0.04650   0.13960065E-01
   0.04750   0.25089854E-01
   0.04850   0.36061291E-01
   0.04950   0.27956367E-01
   0.05050   0.17535456E-01
   0.05150   0.12481570E-01
   0.05250   0.10569374E-01
   0.05350   0.10470629E-01
   0.05450   0.11802286E-01
   0.05550   0.14394197E-01
   0.05650   0.17112605E-01
   0.05750   0.17286168E-01
   0.05850   0.14511308E-01
   0.05950   0.11411925E-01
   0.06050   0.93540754E-02
   0.06150   0.83465548E-02
   0.06250   0.81651192E-02
   0.06350   0.86593349E-02
   0.06450   0.96730888E-02
   0.06550   0.10796431E-01
   0.06650   0.11244912E-01
   0.06750   0.10525211E-01
   0.06850   0.91265254E-02
   0.06950   0.78170588E-02
   0.07050   0.69470946E-02
   0.07150   0.65574097E-02
   0.07250   0.66057015E-02
   0.07350   0.70412541E-02
   0.07450   0.77676950E-02
   0.07550   0.85451044E-02
   0.07650   0.89746164E-02
   0.07750   0.87818624E-02
   0.07850   0.81253694E-02
   0.07950   0.73999949E-02
   0.08050   0.68891258E-02
   0.08150   0.67076334E-02
   0.08250   0.68899309E-02
   0.08350   0.74467682E-02
   0.08450   0.83552673E-02
   0.08550   0.94846375E-02
   0.08650   0.10514228E-01
   0.08750   0.11036138E-01
   0.08850   0.10908970E-01
   0.08950   0.10404840E-01
   0.09050   0.99203587E-02
   0.09150   0.96911984E-02
   0.09250   0.96700555E-02
   0.09350   0.98468084E-02
   0.09450   0.10228327E-01
   0.09550   0.10614899E-01
   0.09650   0.10767956E-01
   0.09750   0.10549625E-01
   0.09850   0.10009209E-01
   0.09950   0.93250507E-02
   0.10050   0.86745974E-02
   0.10150   0.81636012E-02
   0.10250   0.78282952E-02
   0.10350   0.76604439E-02
   0.10450   0.76249340E-02
   0.10550   0.76665990E-02
   0.10650   0.77144010E-02
   0.10750   0.76931552E-02
   0.10850   0.75466051E-02
   0.10950   0.72608711E-02
   0.11050   0.68687508E-02
   0.11150   0.64295884E-02
   0.11250   0.60013710E-02
   0.11350   0.56233108E-02
   0.11450   0.53123944E-02
   0.11550   0.50674174E-02
   0.11650   0.48746117E-02
   0.11750   0.47136922E-02
   0.11850   0.45671174E-02
   0.11950   0.44354177E-02
   0.12050   0.43533752E-02
   0.12150   0.43877438E-02
   0.12250   0.45978292E-02
   0.12350   0.49689426E-02
   0.12450   0.53591141E-02
   0.12550   0.55183950E-02
   0.12650   0.52318866E-02
   0.12750   0.45011705E-02
   0.12850   0.35446307E-02
   0.12950   0.26128569E-02
   0.13050   0.18507015E-02
   0.13150   0.12931762E-02
   0.13250   0.91610360E-03
   0.13350   0.67719066E-03
   0.13450   0.53601991E-03
   0.13550   0.46053802E-03
   0.13650   0.42748597E-03
   0.13750   0.42080882E-03
   0.13850   0.42977004E-03
   0.13950   0.44735652E-03
   0.14050   0.46908745E-03
   0.14150   0.49217406E-03
   0.14250   0.51494205E-03
   0.14350   0.53643843E-03
   0.14450   0.55616617E-03
   0.14550   0.57390600E-03
   0.14650   0.58960135E-03
   0.14750   0.60328643E-03
   0.14850   0.61504618E-03
   0.14950   0.62499620E-03
   0.15050   0.63327508E-03
   0.15150   0.64004213E-03
   0.15250   0.64547564E-03
   0.15350   0.64976915E-03
   0.15450   0.65312377E-03
   0.15550   0.65573846E-03
   0.15650   0.65779855E-03
   0.15750   0.65946503E-03
   0.15850   0.66086638E-03
   0.15950   0.66209398E-03
   0.16050   0.66320185E-03
   0.16150   0.66421099E-03
   0.16250   0.66511665E-03
   0.16350   0.66589843E-03
   0.16450   0.66653028E-03
   0.16550   0.66698896E-03
   0.16650   0.66725857E-03
   0.16750   0.66732860E-03
   0.16850   0.66718232E-03
   0.16950   0.66677143E-03
   0.17050   0.66596433E-03
   0.17150   0.66443993E-03
   0.17250   0.66143303E-03
   0.17350   0.65500103E-03
   0.17450   0.63943287E-03
   0.17550   0.59824280E-03
   0.17650   0.53133501E-03
   0.17750   0.47532812E-03
   0.17850   0.43350860E-03
   0.17950   0.40106196E-03
   0.18050   0.37492649E-03
   0.18150   0.35329905E-03
   0.18250   0.33505575E-03
   0.18350   0.31945310E-03
   0.18450   0.30597392E-03
   0.18550   0.29424319E-03
   0.18650   0.28397935E-03
   0.18750   0.27496472E-03
   0.18850   0.26702695E-03
   0.18950   0.26002681E-03
   0.19050   0.25385030E-03
   0.19150   0.24840303E-03
   0.19250   0.24360660E-03
   0.19350   0.23939575E-03
   0.19450   0.23571655E-03
   0.19550   0.23252482E-03
   0.19650   0.22978493E-03
   0.19750   0.22746874E-03
   0.19850   0.22555472E-03
   0.19950   0.22402694E-03
   0.20050   0.22287428E-03
   0.20150   0.22208942E-03
   0.20250   0.22166777E-03
   0.20350   0.22160623E-03
   0.20450   0.22190122E-03
   0.20550   0.22254577E-03
   0.20650   0.22352366E-03
   0.20750   0.22479740E-03
   0.20850   0.22628010E-03
   0.20950   0.22776122E-03
   0.21050   0.22868262E-03
   0.21150   0.22734037E-03
   0.21250   0.21785549E-03
   0.21350   0.19416558E-03
   0.21450   0.21665887E-03
   0.21550   0.24320227E-03
   0.21650   0.25435712E-03
   0.21750   0.25259686E-03
   0.21850   0.23616823E-03
   0.21950   0.21920344E-03
   0.22050   0.20573090E-03
   0.22150   0.19508129E-03
   0.22250   0.18653109E-03
   0.22350   0.17959705E-03
   0.22450   0.17396451E-03
   0.22550   0.16942795E-03
   0.22650   0.16585659E-03
   0.22750   0.16317607E-03
   0.22850   0.16136009E-03
   0.22950   0.16042942E-03
   0.23050   0.16045713E-03
   0.23150   0.16157738E-03
   0.23250   0.16397124E-03
   0.23350   0.16760010E-03
   0.23450   0.16989547E-03
   0.23550   0.16346743E-03
   0.23650   0.15245605E-03
   0.23750   0.14181032E-03
   0.23850   0.13229140E-03
   0.23950   0.12385503E-03
   0.24050   0.11635435E-03
   0.24150   0.10964947E-03
   0.24250   0.10362288E-03
   0.24350   0.98178083E-04
   0.24450   0.93235816E-04
   0.24550   0.88730485E-04
   0.24650   0.84607382E-04
   0.24750   0.80820522E-04
   0.24850   0.77330922E-04
   0.24950   0.74105345E-04
   0.25050   0.71115202E-04
   0.25150   0.68335765E-04
   0.25250   0.65745488E-04
   0.25350   0.63325460E-04
   0.25450   0.61058992E-04
   0.25550   0.58931306E-04
   0.25650   0.56929239E-04
   0.25750   0.55041080E-04
   0.25850   0.53256419E-04
   0.25950   0.51566050E-04
   0.26050   0.49961902E-04
   0.26150   0.48436988E-04
   0.26250   0.46985348E-04
   0.26350   0.45602017E-04
   0.26450   0.44282984E-04
   0.26550   0.43025102E-04
   0.26650   0.41826035E-04
   0.26750   0.40684143E-04
   0.26850   0.39598384E-04
   0.26950   0.38568174E-04
   0.27050   0.37593254E-04
   0.27150   0.36673551E-04
   0.27250   0.35809015E-04
   0.27350   0.34999503E-04
   0.27450   0.34244651E-04
   0.27550   0.33543762E-04
   0.27650   0.32895729E-04
   0.27750   0.32298994E-04
   0.27850   0.31751519E-04
   0.27950   0.31250791E-04
   0.28050   0.30793886E-04
   0.28150   0.30377514E-04
   0.28250   0.29998118E-04
   0.28350   0.29651994E-04
   0.28450   0.29335391E-04
   0.28550   0.29044642E-04
   0.28650   0.28776263E-04
   0.28750   0.28527031E-04
   0.28850   0.28294029E-04
   0.28950   0.28074619E-04
   0.29050   0.27866310E-04
   0.29150   0.27666458E-04
   0.29250   0.27471633E-04
   0.29350   0.27276330E-04
   0.29450   0.27070106E-04
   0.29550   0.26830547E-04
   0.29650   0.26503056E-04
   0.29750   0.25930156E-04
   0.29850   0.24590609E-04
   0.29950   0.21834907E-04
   0.30050   0.19086436E-04
   0.30150   0.17004128E-04
   0.30250   0.15399159E-04
   0.30350   0.14112702E-04
   0.30450   0.13049332E-04
   0.30550   0.12149884E-04
   0.30650   0.11375690E-04
   0.30750   0.10700343E-04
   0.30850   0.10105210E-04
   0.30950   0.95768073E-05
   0.31050   0.91051897E-05
   0.31150   0.86829014E-05
   0.31250   0.83042505E-05
   0.31350   0.79648007E-05
   0.31450   0.76609967E-05
   0.31550   0.73898823E-05
   0.31650   0.71488889E-05
   0.31750   0.69356802E-05
   0.31850   0.67480355E-05
   0.31950   0.65837703E-05
   0.32050   0.64406850E-05
   0.32150   0.63165367E-05
   0.32250   0.62090298E-05
   0.32350   0.61158194E-05
   0.32450   0.60345155E-05
   0.32550   0.59626900E-05
   0.32650   0.58978653E-05
   0.32750   0.58374776E-05
   0.32850   0.57787856E-05
   0.32950   0.57186940E-05
   0.33050   0.56534209E-05
   0.33150   0.55778819E-05
   0.33250   0.54845318E-05
   0.33350   0.53610961E-05
   0.33450   0.51859474E-05
   0.33550   0.49183936E-05
   0.33650   0.44795706E-05
   0.33750   0.37357720E-05
   0.33850   0.26760811E-05
   0.33950   0.22551851E-05
   0.34050   0.34664961E-05
   0.34150   0.48069078E-05
   0.34250   0.55268220E-05
   0.34350   0.58931378E-05
   0.34450   0.61040487E-05
   0.34550   0.62461127E-05
   0.34650   0.63567677E-05
   0.34750   0.64533456E-05
   0.34850   0.65445870E-05
   0.34950   0.66354146E-05
   0.35050   0.67290798E-05
   0.35150   0.68282175E-05
   0.35250   0.69354187E-05
   0.35350   0.70535593E-05
   0.35450   0.71860027E-05
   0.35550   0.73367128E-05
   0.35650   0.75102880E-05
   0.35750   0.77118730E-05
   0.35850   0.79467745E-05
   0.35950   0.82191136E-05
   0.36050   0.85266674E-05
   0.36150   0.88367788E-05
   0.36250   0.89759105E-05
   0.36350   0.87249045E-05
   0.36450   0.84195017E-05
   0.36550   0.82065208E-05
   0.36650   0.80715608E-05
   0.36750   0.79932242E-05
   0.36850   0.79567344E-05
   0.36950   0.79526162E-05
   0.37050   0.79751471E-05
   0.37150   0.80213977E-05
   0.37250   0.80907112E-05
   0.37350   0.81844328E-05
   0.37450   0.83058549E-05
   0.37550   0.84603407E-05
   0.37650   0.86557311E-05
   0.37750   0.89031591E-05
   0.37850   0.92185528E-05
   0.37950   0.96248168E-05
   0.38050   0.10150166E-04
   0.38150   0.10765722E-04
   0.38250   0.11057408E-04
   0.38350   0.10847463E-04
   0.38450   0.10528373E-04
   0.38550   0.10226308E-04
   0.38650   0.99618765E-05
   0.38750   0.97359434E-05
   0.38850   0.95458772E-05
   0.38950   0.93889748E-05
   0.39050   0.92631699E-05
   0.39150   0.91670727E-05
   0.39250   0.90998183E-05
   0.39350   0.90608828E-05
   0.39450   0.90498988E-05
   0.39550   0.90664989E-05
   0.39650   0.91101838E-05
   0.39750   0.91802322E-05
   0.39850   0.92756391E-05
   0.39950   0.93951021E-05
   0.40050   0.95370424E-05
   0.40150   0.96996582E-05
   0.40250   0.98810178E-05
   0.40350   0.10079173E-04
   0.40450   0.10292293E-04
   0.40550   0.10518814E-04
   0.40650   0.10757592E-04
   0.40750   0.11008064E-04
   0.40850   0.11270410E-04
   0.40950   0.11545781E-04
   0.41050   0.11836662E-04
   0.41150   0.12147824E-04
   0.41250   0.12489503E-04
   0.41350   0.12891457E-04
   0.41450   0.13442259E-04
   0.41550   0.14159261E-04
   0.41650   0.14944038E-04
   0.41750   0.15771273E-04
   0.41850   0.16639493E-04
   0.41950   0.17550106E-04
   0.42050   0.18504836E-04
   0.42150   0.19505707E-04
   0.42250   0.20556035E-04
   0.42350   0.21661399E-04
   0.42450   0.22827960E-04
   0.42550   0.24059716E-04
   0.42650   0.25359461E-04
   0.42750   0.26730975E-04
   0.42850   0.28179558E-04
   0.42950   0.29711702E-04
   0.43050   0.31334781E-04
   0.43150   0.33056906E-04
   0.43250   0.34886860E-04
   0.43350   0.36834062E-04
   0.43450   0.38908573E-04
   0.43550   0.41121086E-04
   0.43650   0.43482978E-04
   0.43750   0.46006353E-04
   0.43850   0.48704162E-04
   0.43950   0.51590323E-04
   0.44050   0.54679931E-04
   0.44150   0.57989491E-04
   0.44250   0.61537212E-04
   0.44350   0.65343353E-04
   0.44450   0.69430636E-04
   0.44550   0.73824660E-04
   0.44650   0.78554403E-04
   0.44750   0.83652703E-04
   0.44850   0.89156827E-04
   0.44950   0.95109004E-04
   0.45050   0.10155705E-03
   0.45150   0.10855492E-03
   0.45250   0.11616346E-03
   0.45350   0.12445115E-03
   0.45450   0.13349493E-03
   0.45550   0.14338133E-03
   0.45650   0.15420772E-03
   0.45750   0.16608409E-03
   0.45850   0.17913507E-03
   0.45950   0.19350274E-03
   0.46050   0.20935017E-03
   0.46150   0.22686583E-03
   0.46250   0.24626925E-03
   0.46350   0.26781813E-03
   0.46450   0.29181701E-03
   0.46550   0.31862812E-03
   0.46650   0.34868470E-03
   0.46750   0.38250705E-03
   0.46850   0.42072232E-03
   0.46950   0.46408817E-03
   0.47050   0.51351934E-03
   0.47150   0.57011039E-03
   0.47250   0.63511846E-03
   0.47350   0.70972589E-03
   0.47450   0.79397374E-03
   0.47550   0.88787382E-03
   0.47650   0.10036677E-02
   0.47750   0.11448114E-02
   0.47850   0.13113797E-02
   0.47950   0.15111885E-02
   0.48050   0.17510437E-02
   0.48150   0.20401054E-02
   0.48250   0.23898573E-02
   0.48350   0.28134463E-02
   0.48450   0.33227445E-02
   0.48550   0.38938303E-02
   0.48650   0.43676300E-02
   0.48750   0.50251582E-02
   0.48850   0.58087683E-02
   0.48950   0.65446808E-02
   0.49050   0.72821220E-02
   0.49150   0.80630295E-02
   0.49250   0.87119462E-02
   0.49350   0.90376036E-02
   0.49450   0.89712320E-02
   0.49550   0.85942075E-02
   0.49650   0.82599614E-02
   0.49750   0.85798586E-02
   0.49850   0.10639810E-01
   0.49950   0.10816245E-01
   0.50050   0.17799959E-01
   0.50150   0.74571386E-01
   0.50250   0.14154033E+00
   0.50350   0.25969876E-01
   0.50450   0.15465762E+00
   0.50550   0.18066710E-02
   0.50650   0.34643591E-02
   0.50750   0.39818720E-02
   0.50850   0.46868818E-02
   0.50950   0.49218708E-02
   0.51050   0.50042002E-02
   0.51150   0.52200565E-02
   0.51250   0.55231089E-02
   0.51350   0.57409862E-02
   0.51450   0.58177640E-02
   0.51550   0.58292262E-02
   0.51650   0.58851107E-02
   0.51750   0.60306452E-02
   0.51850   0.62551592E-02
   0.51950   0.65353890E-02
   0.52050   0.66908570E-02
   0.52150   0.64259819E-02
   0.52250   0.59896708E-02
   0.52350   0.55167116E-02
   0.52450   0.50194548E-02
   0.52550   0.44994024E-02
   0.52650   0.39733970E-02
   0.52750   0.34831930E-02
   0.52850   0.30659251E-02
   0.52950   0.27297144E-02
   0.53050   0.24601584E-02
   0.53150   0.22392659E-02
   0.53250   0.20451793E-02
   0.53350   0.18210823E-02
   0.53450   0.15930607E-02
   0.53550   0.14230396E-02
   0.53650   0.13015541E-02
   0.53750   0.12131815E-02
   0.53850   0.11481177E-02
   0.53950   0.11005589E-02
   0.54050   0.10666240E-02
   0.54150   0.10431953E-02
   0.54250   0.10275769E-02
   0.54350   0.10175202E-02
   0.54450   0.10112795E-02
   0.54550   0.10075724E-02
   0.54650   0.10054610E-02
   0.54750   0.10042114E-02
   0.54850   0.10031866E-02
   0.54950   0.10017939E-02
   0.55050   0.99948747E-03
   0.55150   0.99581399E-03
   0.55250   0.99049509E-03
   0.55350   0.98353776E-03
   0.55450   0.97535038E-03
   0.55550   0.96682488E-03
   0.55650   0.95934153E-03
   0.55750   0.95467339E-03
   0.55850   0.95479307E-03
   0.55950   0.96159463E-03
   0.56050   0.97652175E-03
   0.56150   0.10000557E-02
   0.56250   0.10310175E-02
   0.56350   0.10657700E-02
   0.56450   0.10977696E-02
   0.56550   0.11184239E-02
   0.56650   0.11201689E-02
   0.56750   0.11007194E-02
   0.56850   0.10645941E-02
   0.56950   0.10198215E-02
   0.57050   0.97329594E-03
   0.57150   0.92872255E-03
   0.57250   0.88713929E-03
   0.57350   0.84822660E-03
   0.57450   0.81131689E-03
   0.57550   0.77590672E-03
   0.57650   0.74181188E-03
   0.57750   0.70913212E-03
   0.57850   0.67814073E-03
   0.57950   0.64916402E-03
   0.58050   0.62248227E-03
   0.58150   0.59826375E-03
   0.58250   0.57653227E-03
   0.58350   0.55716222E-03
   0.58450   0.53989416E-03
   0.58550   0.52436430E-03
   0.58650   0.51014067E-03
   0.58750   0.49676193E-03
   0.58850   0.48377254E-03
   0.58950   0.47075303E-03
   0.59050   0.45734135E-03
   0.59150   0.44324648E-03
   0.59250   0.42825419E-03
   0.59350   0.41222741E-03
   0.59450   0.39510435E-03
   0.59550   0.37690051E-03
   0.59650   0.35772775E-03
   0.59750   0.33785790E-03
   0.59850   0.31788909E-03
   0.59950   0.29909913E-03
   0.60050   0.28387731E-03
   0.60150   0.27471615E-03
   0.60250   0.26784354E-03
   0.60350   0.25331360E-03
   0.60450   0.24263529E-03
   0.60550   0.24629451E-03
   0.60650   0.25254593E-03
   0.60750   0.25497554E-03
   0.60850   0.25455101E-03
   0.60950   0.25356421E-03
   0.61050   0.25377938E-03
   0.61150   0.25637654E-03
   0.61250   0.26215901E-03
   0.61350   0.27171039E-03
   0.61450   0.28548489E-03
   0.61550   0.30381751E-03
   0.61650   0.32657821E-03
   0.61750   0.35023529E-03
   0.61850   0.35775115E-03
   0.61950   0.34701114E-03
   0.62050   0.33451477E-03
   0.62150   0.32453885E-03
   0.62250   0.31917903E-03
   0.62350   0.31739988E-03
   0.62450   0.31596282E-03
   0.62550   0.31484989E-03
   0.62650   0.31444101E-03
   0.62750   0.31493965E-03
   0.62850   0.31641938E-03
   0.62950   0.31887330E-03
   0.63050   0.32224919E-03
   0.63150   0.32647682E-03
   0.63250   0.33148937E-03
   0.63350   0.33723930E-03
   0.63450   0.34370855E-03
   0.63550   0.35091248E-03
   0.63650   0.35889863E-03
   0.63750   0.36774078E-03
   0.63850   0.37752974E-03
   0.63950   0.38836250E-03
   0.64050   0.40033163E-03
   0.64150   0.41351639E-03
   0.64250   0.42797686E-03
   0.64350   0.44375221E-03
   0.64450   0.46086282E-03
   0.64550   0.47931648E-03
   0.64650   0.49911777E-03
   0.64750   0.52027911E-03
   0.64850   0.54283312E-03
   0.64950   0.56684419E-03
   0.65050   0.59241854E-03
   0.65150   0.61971217E-03
   0.65250   0.64893556E-03
   0.65350   0.68035541E-03
   0.65450   0.71429368E-03
   0.65550   0.75112400E-03
   0.65650   0.79126656E-03
   0.65750   0.83518296E-03
   0.65850   0.88337157E-03
   0.65950   0.93636452E-03
   0.66050   0.99472806E-03
   0.66150   0.10590662E-02
   0.66250   0.11300275E-02
   0.66350   0.12083169E-02
   0.66450   0.12947106E-02
   0.66550   0.13900741E-02
   0.66650   0.14953851E-02
   0.66750   0.16117577E-02
   0.66850   0.17404736E-02
   0.66950   0.18830168E-02
   0.67050   0.20411185E-02
   0.67150   0.22168136E-02
   0.67250   0.24125222E-02
   0.67350   0.26311923E-02
   0.67450   0.28767153E-02
   0.67550   0.31561451E-02
   0.67650   0.35050365E-02
   0.67750   0.45917202E-02
   0.67850   0.44281837E-02
   0.67950   0.48317797E-02
   0.68050   0.53765192E-02
   0.68150   0.60450924E-02
   0.68250   0.68643014E-02
   0.68350   0.78774532E-02
   0.68450   0.91250474E-02
   0.68550   0.10608132E-01
   0.68650   0.12290158E-01
   0.68750   0.14252739E-01
   0.68850   0.17243791E-01
   0.68950   0.23135476E-01
   0.69050   0.34952123E-01
   0.69150   0.57951760E-01
   0.69250   0.32144940E+00
   0.69350   0.12125247E+00
   0.69450   0.16810060E+00
   0.69550   0.24584386E+00
   0.69650   0.13474011E-01
   0.69750   0.47571021E-02
   0.69850   0.40158620E-02
   0.69950   0.30226228E-02
   0.70050   0.22220896E-02
   0.70150   0.18481701E-02
   0.70250   0.17164175E-02
   0.70350   0.16752769E-02
   0.70450   0.16715245E-02
   0.70550   0.17075785E-02
   0.70650   0.17768726E-02
   0.70750   0.18535476E-02
   0.70850   0.18599207E-02
   0.70950   0.17689135E-02
   0.71050   0.16103804E-02
   0.71150   0.14292396E-02
   0.71250   0.12567609E-02
   0.71350   0.11069371E-02
   0.71450   0.98414300E-03
   0.71550   0.88951027E-03
   0.71650   0.82295144E-03
   0.71750   0.78303373E-03
   0.71850   0.76689949E-03
   0.71950   0.77066239E-03
   0.72050   0.78974717E-03
   0.72150   0.81885571E-03
   0.72250   0.85184636E-03
   0.72350   0.88202616E-03
   0.72450   0.90306596E-03
   0.72550   0.91029977E-03
   0.72650   0.90190541E-03
   0.72750   0.87947102E-03
   0.72850   0.84768585E-03
   0.72950   0.81324420E-03
   0.73050   0.78341569E-03
   0.73150   0.76518039E-03
   0.73250   0.76562440E-03
   0.73350   0.78364351E-03
   0.73450   0.81047870E-03
   0.73550   0.84180088E-03
   0.73650   0.87384303E-03
   0.73750   0.90308947E-03
   0.73850   0.92695444E-03
   0.73950   0.94415213E-03
   0.74050   0.95470762E-03
   0.74150   0.95971336E-03
   0.74250   0.96096937E-03
   0.74350   0.96063613E-03
   0.74450   0.96098258E-03
   0.74550   0.96425356E-03
   0.74650   0.97262039E-03
   0.74750   0.98814326E-03
   0.74850   0.10126700E-02
   0.74950   0.10476343E-02
   0.75050   0.10937703E-02
   0.75150   0.11508146E-02
   0.75250   0.12172930E-02
   0.75350   0.12904736E-02
   0.75450   0.13665354E-02
   0.75550   0.14409438E-02
   0.75650   0.15089801E-02
   0.75750   0.15663434E-02
   0.75850   0.16097277E-02
   0.75950   0.16372880E-02
   0.76050   0.16489236E-02
   0.76150   0.16463433E-02
   0.76250   0.16329070E-02
   0.76350   0.16132755E-02
   0.76450   0.15929223E-02
   0.76550   0.15775752E-02
   0.76650   0.15726581E-02
   0.76750   0.15827888E-02
   0.76850   0.16113796E-02
   0.76950   0.16603679E-02
   0.77050   0.17300922E-02
   0.77150   0.18193122E-02
   0.77250   0.19253684E-02
   0.77350   0.20444621E-02
   0.77450   0.21720328E-02
   0.77550   0.23032117E-02
   0.77650   0.24333268E-02
   0.77750   0.25584588E-02
   0.77850   0.26760842E-02
   0.77950   0.27859914E-02
   0.78050   0.28921266E-02
   0.78150   0.30068292E-02
   0.78250   0.31406481E-02
   0.78350   0.32650440E-02
   0.78450   0.33785952E-02
   0.78550   0.34951814E-02
   0.78650   0.36252846E-02
   0.78750   0.37769724E-02
   0.78850   0.39566783E-02
   0.78950   0.41694064E-02
   0.79050   0.44187666E-02
   0.79150   0.47070081E-02
   0.79250   0.50351121E-02
   0.79350   0.54029641E-02
   0.79450   0.58096116E-02
   0.79550   0.62535992E-02
   0.79650   0.67333584E-02
   0.79750   0.72476342E-02
   0.79850   0.77959206E-02
   0.79950   0.83788782E-02
   0.80050   0.89987116E-02
   0.80150   0.96594859E-02
   0.80250   0.10367393E-01
   0.80350   0.11130959E-01
   0.80450   0.11961272E-01
   0.80550   0.12872276E-01
   0.80650   0.13881302E-01
   0.80750   0.15010071E-01
   0.80850   0.16286684E-01
   0.80950   0.17749812E-01
   0.81050   0.19458713E-01
   0.81150   0.21523144E-01
   0.81250   0.24230251E-01
   0.81350   0.28991316E-01
   0.81450   0.50728820E-01
   0.81550   0.37535697E-01
   0.81650   0.38814090E-01
   0.81750   0.44760533E-01
   0.81850   0.54305527E-01
   0.81950   0.72265916E-01
   0.82050   0.13103658E+00
   0.82150   0.43247765E+00
   0.82250   0.48654976E+00
   0.82350   0.35064030E+00
   0.82450   0.35617822E+00
   0.82550   0.38161576E+00
   0.82650   0.55544341E+00
   0.82750   0.55240762E+00
   0.82850   0.58119440E+00
   0.82950   0.44176650E+00
   0.83050   0.20863840E+00
   0.83150   0.12689616E+00
   0.83250   0.63714042E-01
   0.83350   0.47645092E-01
   0.83450   0.48532441E-01
   0.83550   0.48190467E-01
   0.83650   0.45580875E-01
   0.83750   0.42769387E-01
   0.83850   0.42284571E-01
   0.83950   0.42174991E-01
   0.84050   0.40409140E-01
   0.84150   0.37280731E-01
   0.84250   0.34013685E-01
   0.84350   0.31678434E-01
   0.84450   0.30233618E-01
   0.84550   0.29130964E-01
   0.84650   0.28126225E-01
   0.84750   0.27421765E-01
   0.84850   0.27385117E-01
   0.84950   0.27925853E-01
   0.85050   0.28904572E-01
   0.85150   0.30212736E-01
   0.85250   0.31691708E-01
   0.85350   0.33184443E-01
   0.85450   0.34599110E-01
   0.85550   0.35931930E-01
   0.85650   0.37245989E-01
   0.85750   0.38624156E-01
   0.85850   0.40120255E-01
   0.85950   0.41732561E-01
   0.86050   0.43410949E-01
   0.86150   0.45088433E-01
   0.86250   0.46717741E-01
   0.86350   0.48297260E-01
   0.86450   0.49878813E-01
   0.86550   0.51556069E-01
   0.86650   0.53438336E-01
   0.86750   0.55620242E-01
   0.86850   0.58158118E-01
   0.86950   0.61057966E-01
   0.87050   0.64274043E-01
   0.87150   0.67715727E-01
   0.87250   0.71261294E-01
   0.87350   0.74775815E-01
   0.87450   0.78128465E-01
   0.87550   0.81204131E-01
   0.87650   0.83908342E-01
   0.87750   0.86169384E-01
   0.87850   0.87942764E-01
   0.87950   0.89219704E-01
   0.88050   0.90035789E-01
   0.88150   0.90472661E-01
   0.88250   0.90649068E-01
   0.88350   0.90704776E-01
   0.88450   0.90784259E-01
   0.88550   0.91024116E-01
   0.88650   0.91544002E-01
   0.88750   0.92441484E-01
   0.88850   0.93795411E-01
   0.88950   0.95684268E-01
   0.89050   0.98219134E-01
   0.89150   0.10157906E+00
   0.89250   0.10603075E+00
   0.89350   0.11192161E+00
   0.89450   0.11964802E+00
   0.89550   0.12960634E+00
   0.89650   0.14213493E+00
   0.89750   0.15746346E+00
   0.89850   0.17570256E+00
   0.89950   0.19691536E+00
   0.90050   0.22107126E+00
   0.90150   0.24633560E+00
   0.90250   0.27148658E+00
   0.90350   0.29627505E+00
   0.90450   0.32048300E+00
   0.90550   0.34460860E+00
   0.90650   0.36879212E+00
   0.90750   0.39290944E+00
   0.90850   0.41670373E+00
   0.90950   0.43987611E+00
   0.91050   0.46218872E+00
   0.91150   0.48366690E+00
   0.91250   0.50511056E+00
   0.91350   0.53039145E+00
   0.91450   0.60786611E+00
   0.91550   0.67958713E+00
   0.91650   0.59202099E+00
   0.91750   0.63030070E+00
   0.91850   0.70322454E+00
   0.91950   0.85533100E+00
   0.92050   0.89465678E+00
   0.92150   0.91367894E+00
   0.92250   0.10005285E+01
   0.92350   0.10641501E+01
   0.92450   0.10921600E+01
   0.92550   0.10947688E+01
   0.92650   0.10838126E+01
   0.92750   0.11011704E+01
   0.92850   0.11578707E+01
   0.92950   0.12219568E+01
   0.93050   0.12235776E+01
   0.93150   0.11188006E+01
   0.93250   0.10277302E+01
   0.93350   0.96309489E+00
   0.93450   0.91582805E+00
   0.93550   0.89693129E+00
   0.93650   0.90603703E+00
   0.93750   0.93483800E+00
   0.93850   0.96785802E+00
   0.93950   0.99221593E+00
   0.94050   0.10076895E+01
   0.94150   0.10225602E+01
   0.94250   0.10443490E+01
   0.94350   0.10765420E+01
   0.94450   0.11188220E+01
   0.94550   0.11679978E+01
   0.94650   0.12217689E+01
   0.94750   0.12772616E+01
   0.94850   0.13205026E+01
   0.94950   0.13424603E+01
   0.95050   0.13510205E+01
   0.95150   0.13573112E+01
   0.95250   0.13704767E+01
   0.95350   0.13973194E+01
   0.95450   0.14374515E+01
   0.95550   0.14851586E+01
   0.95650   0.15337213E+01
   0.95750   0.15788664E+01
   0.95850   0.16248834E+01
   0.95950   0.16745466E+01
   0.96050   0.17254262E+01
   0.96150   0.17724938E+01
   0.96250   0.18121415E+01
   0.96350   0.18432668E+01
   0.96450   0.18664324E+01
   0.96550   0.18839643E+01
   0.96650   0.19001667E+01
   0.96750   0.19195770E+01
   0.96850   0.19448854E+01
   0.96950   0.19747723E+01
   0.97050   0.20044558E+01
   0.97150   0.20336044E+01
   0.97250   0.20700469E+01
   0.97350   0.21194708E+01
   0.97450   0.21743619E+01
   0.97550   0.22256482E+01
   0.97650   0.22765324E+01
   0.97750   0.23327374E+01
   0.97850   0.24042366E+01
   0.97950   0.25051961E+01
   0.98050   0.26550415E+01
   0.98150   0.28471646E+01
   0.98250   0.30189414E+01
   0.98350   0.31339865E+01
   0.98450   0.32138178E+01
   0.98550   0.33128333E+01
   0.98650   0.34732330E+01
   0.98750   0.36161025E+01
   0.98850   0.36226625E+01
   0.98950   0.36421034E+01
   0.99050   0.36904986E+01
   0.99150   0.37542078E+01
   0.99250   0.38567705E+01
   0.99350   0.40203152E+01
   0.99450   0.42153206E+01
   0.99550   0.43258452E+01
   0.99650   0.43765578E+01
   0.99750   0.44539533E+01
   0.99850   0.45724659E+01
   0.99950   0.47036290E+01
