# Transmission, k-averaged
# Date: 2021-05-13
#   E [eV]           T [G0]
   0.00050   0.14788981E+00
   0.00150   0.86032353E-01
   0.00250   0.21543801E-01
   0.00350   0.13238422E-01
   0.00450   0.10167313E+00
   0.00550   0.51160948E-02
   0.00650   0.66414781E-01
   0.00750   0.38543243E-02
   0.00850   0.15105637E-01
   0.00950   0.97890384E-02
   0.01050   0.34535185E-02
   0.01150   0.10305881E-01
   0.01250   0.29055299E-01
   0.01350   0.40953085E-02
   0.01450   0.37016030E-02
   0.01550   0.13207856E-01
   0.01650   0.38292512E-01
   0.01750   0.50579826E-02
   0.01850   0.32057336E-02
   0.01950   0.48346319E-02
   0.02050   0.24265537E-01
   0.02150   0.27417039E-01
   0.02250   0.51728105E-02
   0.02350   0.31056416E-02
   0.02450   0.35645857E-02
   0.02550   0.82315728E-02
   0.02650   0.63885108E-01
   0.02750   0.14198409E-01
   0.02850   0.42909086E-02
   0.02950   0.28329613E-02
   0.03050   0.30838267E-02
   0.03150   0.57092998E-02
   0.03250   0.26866585E-01
   0.03350   0.31169835E-01
   0.03450   0.57917363E-02
   0.03550   0.28223442E-02
   0.03650   0.22863576E-02
   0.03750   0.28105197E-02
   0.03850   0.58509507E-02
   0.03950   0.33449087E-01
   0.04050   0.17692216E-01
   0.04150   0.39817197E-02
   0.04250   0.20969827E-02
   0.04350   0.18039617E-02
   0.04450   0.24240578E-02
   0.04550   0.50942474E-02
   0.04650   0.93862209E-02
   0.04750   0.54716300E-02
   0.04850   0.27589800E-02
   0.04950   0.18780264E-02
   0.05050   0.16620004E-02
   0.05150   0.18135698E-02
   0.05250   0.23227881E-02
   0.05350   0.32123809E-02
   0.05450   0.40938943E-02
   0.05550   0.41849436E-02
   0.05650   0.36730710E-02
   0.05750   0.32229191E-02
   0.05850   0.30500758E-02
   0.05950   0.31520464E-02
   0.06050   0.34967710E-02
   0.06150   0.40208213E-02
   0.06250   0.45697158E-02
   0.06350   0.49171303E-02
   0.06450   0.49485127E-02
   0.06550   0.47683795E-02
   0.06650   0.45567621E-02
   0.06750   0.44276607E-02
   0.06850   0.44173934E-02
   0.06950   0.45156470E-02
   0.07050   0.46846103E-02
   0.07150   0.48685162E-02
   0.07250   0.50084130E-02
   0.07350   0.50656437E-02
   0.07450   0.50389152E-02
   0.07550   0.49591255E-02
   0.07650   0.48680394E-02
   0.07750   0.47994759E-02
   0.07850   0.47718026E-02
   0.07950   0.47885613E-02
   0.08050   0.48419139E-02
   0.08150   0.49166167E-02
   0.08250   0.49945386E-02
   0.08350   0.50598942E-02
   0.08450   0.51040896E-02
   0.08550   0.51282072E-02
   0.08650   0.51419651E-02
   0.08750   0.51599820E-02
   0.08850   0.51972559E-02
   0.08950   0.52646920E-02
   0.09050   0.53605563E-02
   0.09150   0.54291547E-02
   0.09250   0.52653998E-02
   0.09350   0.49119964E-02
   0.09450   0.45700413E-02
   0.09550   0.42671543E-02
   0.09650   0.39987932E-02
   0.09750   0.37605208E-02
   0.09850   0.35494093E-02
   0.09950   0.33629972E-02
   0.10050   0.31986528E-02
   0.10150   0.30534144E-02
   0.10250   0.29241112E-02
   0.10350   0.28075983E-02
   0.10450   0.27010108E-02
   0.10550   0.26019709E-02
   0.10650   0.25087153E-02
   0.10750   0.24201218E-02
   0.10850   0.23356434E-02
   0.10950   0.22551662E-02
   0.11050   0.21788352E-02
   0.11150   0.21068812E-02
   0.11250   0.20394830E-02
   0.11350   0.19766795E-02
   0.11450   0.19183322E-02
   0.11550   0.18641354E-02
   0.11650   0.18136550E-02
   0.11750   0.17663876E-02
   0.11850   0.17218234E-02
   0.11950   0.16795036E-02
   0.12050   0.16390637E-02
   0.12150   0.16002569E-02
   0.12250   0.15629563E-02
   0.12350   0.15271390E-02
   0.12450   0.14928562E-02
   0.12550   0.14601976E-02
   0.12650   0.14292551E-02
   0.12750   0.14000942E-02
   0.12850   0.13727340E-02
   0.12950   0.13471391E-02
   0.13050   0.13232216E-02
   0.13150   0.13008515E-02
   0.13250   0.12798731E-02
   0.13350   0.12601243E-02
   0.13450   0.12414546E-02
   0.13550   0.12237407E-02
   0.13650   0.12068970E-02
   0.13750   0.11908783E-02
   0.13850   0.11756793E-02
   0.13950   0.11613247E-02
   0.14050   0.11478590E-02
   0.14150   0.11353333E-02
   0.14250   0.11237920E-02
   0.14350   0.11132627E-02
   0.14450   0.11037494E-02
   0.14550   0.10952289E-02
   0.14650   0.10876526E-02
   0.14750   0.10809503E-02
   0.14850   0.10750375E-02
   0.14950   0.10698247E-02
   0.15050   0.10652253E-02
   0.15150   0.10611647E-02
   0.15250   0.10575845E-02
   0.15350   0.10544474E-02
   0.15450   0.10517350E-02
   0.15550   0.10494461E-02
   0.15650   0.10475902E-02
   0.15750   0.10461810E-02
   0.15850   0.10452284E-02
   0.15950   0.10447318E-02
   0.16050   0.10446742E-02
   0.16150   0.10450195E-02
   0.16250   0.10457105E-02
   0.16350   0.10466712E-02
   0.16450   0.10478088E-02
   0.16550   0.10490175E-02
   0.16650   0.10501809E-02
   0.16750   0.10511697E-02
   0.16850   0.10518320E-02
   0.16950   0.10519646E-02
   0.17050   0.10512467E-02
   0.17150   0.10490848E-02
   0.17250   0.10442118E-02
   0.17350   0.10334782E-02
   0.17450   0.10074578E-02
   0.17550   0.93800947E-03
   0.17650   0.82337152E-03
   0.17750   0.72635629E-03
   0.17850   0.65342180E-03
   0.17950   0.59646438E-03
   0.18050   0.55022544E-03
   0.18150   0.51158201E-03
   0.18250   0.47857800E-03
   0.18350   0.44991641E-03
   0.18450   0.42469561E-03
   0.18550   0.40226456E-03
   0.18650   0.38213818E-03
   0.18750   0.36394552E-03
   0.18850   0.34739656E-03
   0.18950   0.33226013E-03
   0.19050   0.31834876E-03
   0.19150   0.30550832E-03
   0.19250   0.29361036E-03
   0.19350   0.28254680E-03
   0.19450   0.27222603E-03
   0.19550   0.26257016E-03
   0.19650   0.25351293E-03
   0.19750   0.24499846E-03
   0.19850   0.23698011E-03
   0.19950   0.22942010E-03
   0.20050   0.22228912E-03
   0.20150   0.21556641E-03
   0.20250   0.20923995E-03
   0.20350   0.20330719E-03
   0.20450   0.19777589E-03
   0.20550   0.19266576E-03
   0.20650   0.18801060E-03
   0.20750   0.18386172E-03
   0.20850   0.18029287E-03
   0.20950   0.17740788E-03
   0.21050   0.17535262E-03
   0.21150   0.17433459E-03
   0.21250   0.17465782E-03
   0.21350   0.17678988E-03
   0.21450   0.18150875E-03
   0.21550   0.19028191E-03
   0.21650   0.20642839E-03
   0.21750   0.23735531E-03
   0.21850   0.28116404E-03
   0.21950   0.32336893E-03
   0.22050   0.36295672E-03
   0.22150   0.40140451E-03
   0.22250   0.43959785E-03
   0.22350   0.47807043E-03
   0.22450   0.51720964E-03
   0.22550   0.55736618E-03
   0.22650   0.59892214E-03
   0.22750   0.64234651E-03
   0.22850   0.68825478E-03
   0.22950   0.73748722E-03
   0.23050   0.79122226E-03
   0.23150   0.85113116E-03
   0.23250   0.91944810E-03
   0.23350   0.99751342E-03
   0.23450   0.10701738E-02
   0.23550   0.10832715E-02
   0.23650   0.10562761E-02
   0.23750   0.10230978E-02
   0.23850   0.99076668E-03
   0.23950   0.96035295E-03
   0.24050   0.93186501E-03
   0.24150   0.90512505E-03
   0.24250   0.87994715E-03
   0.24350   0.85617148E-03
   0.24450   0.83366554E-03
   0.24550   0.81231911E-03
   0.24650   0.79203915E-03
   0.24750   0.77274523E-03
   0.24850   0.75436709E-03
   0.24950   0.73684222E-03
   0.25050   0.72011515E-03
   0.25150   0.70413633E-03
   0.25250   0.68886188E-03
   0.25350   0.67425339E-03
   0.25450   0.66027779E-03
   0.25550   0.64690737E-03
   0.25650   0.63411950E-03
   0.25750   0.62189676E-03
   0.25850   0.61022653E-03
   0.25950   0.59910101E-03
   0.26050   0.58851676E-03
   0.26150   0.57847414E-03
   0.26250   0.56897709E-03
   0.26350   0.56003226E-03
   0.26450   0.55164850E-03
   0.26550   0.54383598E-03
   0.26650   0.53660542E-03
   0.26750   0.52996719E-03
   0.26850   0.52393024E-03
   0.26950   0.51850150E-03
   0.27050   0.51368459E-03
   0.27150   0.50947932E-03
   0.27250   0.50588069E-03
   0.27350   0.50287833E-03
   0.27450   0.50045626E-03
   0.27550   0.49859221E-03
   0.27650   0.49725774E-03
   0.27750   0.49641862E-03
   0.27850   0.49603486E-03
   0.27950   0.49606158E-03
   0.28050   0.49644982E-03
   0.28150   0.49714756E-03
   0.28250   0.49810082E-03
   0.28350   0.49925520E-03
   0.28450   0.50055701E-03
   0.28550   0.50195481E-03
   0.28650   0.50340063E-03
   0.28750   0.50485105E-03
   0.28850   0.50626823E-03
   0.28950   0.50762005E-03
   0.29050   0.50887966E-03
   0.29150   0.51002292E-03
   0.29250   0.51102246E-03
   0.29350   0.51183219E-03
   0.29450   0.51234965E-03
   0.29550   0.51231059E-03
   0.29650   0.51095570E-03
   0.29750   0.50574011E-03
   0.29850   0.48685621E-03
   0.29950   0.43789970E-03
   0.30050   0.38352006E-03
   0.30150   0.33999005E-03
   0.30250   0.30522305E-03
   0.30350   0.27659573E-03
   0.30450   0.25241417E-03
   0.30550   0.23158987E-03
   0.30650   0.21339193E-03
   0.30750   0.19730745E-03
   0.30850   0.18296285E-03
   0.30950   0.17007734E-03
   0.31050   0.15843431E-03
   0.31150   0.14786290E-03
   0.31250   0.13822581E-03
   0.31350   0.12941087E-03
   0.31450   0.12132519E-03
   0.31550   0.11389089E-03
   0.31650   0.10704199E-03
   0.31750   0.10072208E-03
   0.31850   0.94882576E-04
   0.31950   0.89481349E-04
   0.32050   0.84481704E-04
   0.32150   0.79851503E-04
   0.32250   0.75562566E-04
   0.32350   0.71590111E-04
   0.32450   0.67912355E-04
   0.32550   0.64510183E-04
   0.32650   0.61366874E-04
   0.32750   0.58467889E-04
   0.32850   0.55800690E-04
   0.32950   0.53354648E-04
   0.33050   0.51120911E-04
   0.33150   0.49092374E-04
   0.33250   0.47263624E-04
   0.33350   0.45630954E-04
   0.33450   0.44192377E-04
   0.33550   0.42947686E-04
   0.33650   0.41898544E-04
   0.33750   0.41048588E-04
   0.33850   0.40403615E-04
   0.33950   0.39971768E-04
   0.34050   0.39763807E-04
   0.34150   0.39793460E-04
   0.34250   0.40077834E-04
   0.34350   0.40638006E-04
   0.34450   0.41499781E-04
   0.34550   0.42694730E-04
   0.34650   0.44261724E-04
   0.34750   0.46249159E-04
   0.34850   0.48718466E-04
   0.34950   0.51749612E-04
   0.35050   0.55449829E-04
   0.35150   0.59965987E-04
   0.35250   0.65493005E-04
   0.35350   0.72216331E-04
   0.35450   0.79796337E-04
   0.35550   0.84395186E-04
   0.35650   0.74671632E-04
   0.35750   0.78056859E-04
   0.35850   0.95843883E-04
   0.35950   0.10299894E-03
   0.36050   0.10920785E-03
   0.36150   0.11608616E-03
   0.36250   0.12167612E-03
   0.36350   0.12364828E-03
   0.36450   0.12454360E-03
   0.36550   0.12584831E-03
   0.36650   0.12773296E-03
   0.36750   0.13021934E-03
   0.36850   0.13333542E-03
   0.36950   0.13713255E-03
   0.37050   0.14168845E-03
   0.37150   0.14711072E-03
   0.37250   0.15354305E-03
   0.37350   0.16117572E-03
   0.37450   0.17026214E-03
   0.37550   0.18114506E-03
   0.37650   0.19429837E-03
   0.37750   0.21039507E-03
   0.37850   0.23041705E-03
   0.37950   0.25580192E-03
   0.38050   0.28831753E-03
   0.38150   0.32603645E-03
   0.38250   0.34352779E-03
   0.38350   0.33161583E-03
   0.38450   0.31420466E-03
   0.38550   0.29843740E-03
   0.38650   0.28557843E-03
   0.38750   0.27617934E-03
   0.38850   0.27130789E-03
   0.38950   0.27366134E-03
   0.39050   0.29030515E-03
   0.39150   0.33661732E-03
   0.39250   0.30571822E-03
   0.39350   0.65766020E-04
   0.39450   0.62987863E-04
   0.39550   0.12341213E-03
   0.39650   0.36992712E-03
   0.39750   0.78047434E-03
   0.39850   0.77521178E-03
   0.39950   0.52612176E-03
   0.40050   0.40180676E-03
   0.40150   0.33874836E-03
   0.40250   0.30001218E-03
   0.40350   0.27181531E-03
   0.40450   0.24814208E-03
   0.40550   0.22667760E-03
   0.40650   0.20930664E-03
   0.40750   0.20852489E-03
   0.40850   0.29647668E-03
   0.40950   0.15906241E-02
   0.41050   0.89242771E-04
   0.41150   0.15063697E-03
   0.41250   0.22395520E-03
   0.41350   0.27768657E-03
   0.41450   0.50449237E-03
   0.41550   0.90430547E-02
   0.41650   0.43777069E-02
   0.41750   0.50450508E-02
   0.41850   0.41277558E-02
   0.41950   0.31030271E-02
   0.42050   0.23517746E-02
   0.42150   0.19143892E-02
   0.42250   0.17092761E-02
   0.42350   0.16232791E-02
   0.42450   0.15331599E-02
   0.42550   0.14457555E-02
   0.42650   0.13778141E-02
   0.42750   0.13167894E-02
   0.42850   0.12558765E-02
   0.42950   0.11983301E-02
   0.43050   0.11466830E-02
   0.43150   0.11008278E-02
   0.43250   0.10607897E-02
   0.43350   0.10274322E-02
   0.43450   0.10011834E-02
   0.43550   0.98117534E-03
   0.43650   0.96558192E-03
   0.43750   0.95257541E-03
   0.43850   0.94100786E-03
   0.43950   0.93043974E-03
   0.44050   0.92077622E-03
   0.44150   0.91191864E-03
   0.44250   0.90363121E-03
   0.44350   0.89560280E-03
   0.44450   0.88756956E-03
   0.44550   0.87938103E-03
   0.44650   0.87098149E-03
   0.44750   0.86235296E-03
   0.44850   0.85347303E-03
   0.44950   0.84430608E-03
   0.45050   0.83481951E-03
   0.45150   0.82500651E-03
   0.45250   0.81489672E-03
   0.45350   0.80454902E-03
   0.45450   0.79403090E-03
   0.45550   0.78339531E-03
   0.45650   0.77266636E-03
   0.45750   0.76183630E-03
   0.45850   0.75087196E-03
   0.45950   0.73972566E-03
   0.46050   0.72834716E-03
   0.46150   0.71669417E-03
   0.46250   0.70474058E-03
   0.46350   0.69248071E-03
   0.46450   0.67993026E-03
   0.46550   0.66712243E-03
   0.46650   0.65410131E-03
   0.46750   0.64091367E-03
   0.46850   0.62760164E-03
   0.46950   0.61419705E-03
   0.47050   0.60072099E-03
   0.47150   0.58718759E-03
   0.47250   0.57361211E-03
   0.47350   0.56002126E-03
   0.47450   0.54646225E-03
   0.47550   0.53300924E-03
   0.47650   0.51976490E-03
   0.47750   0.50685869E-03
   0.47850   0.49444346E-03
   0.47950   0.48269294E-03
   0.48050   0.47180284E-03
   0.48150   0.46199764E-03
   0.48250   0.45354295E-03
   0.48350   0.44676397E-03
   0.48450   0.44206891E-03
   0.48550   0.43997730E-03
   0.48650   0.44115234E-03
   0.48750   0.44643605E-03
   0.48850   0.45688095E-03
   0.48950   0.47376173E-03
   0.49050   0.49852766E-03
   0.49150   0.53262111E-03
   0.49250   0.57704170E-03
   0.49350   0.63152349E-03
   0.49450   0.69333444E-03
   0.49550   0.75620855E-03
   0.49650   0.81079348E-03
   0.49750   0.84830314E-03
   0.49850   0.86579972E-03
   0.49950   0.86263602E-03
   0.50050   0.84263500E-03
   0.50150   0.81356848E-03
   0.50250   0.78075827E-03
   0.50350   0.74755744E-03
   0.50450   0.71655057E-03
   0.50550   0.68997580E-03
   0.50650   0.66977204E-03
   0.50750   0.65763429E-03
   0.50850   0.65516547E-03
   0.50950   0.66408451E-03
   0.51050   0.68644097E-03
   0.51150   0.72480662E-03
   0.51250   0.78242295E-03
   0.51350   0.86327596E-03
   0.51450   0.97203557E-03
   0.51550   0.11137360E-02
   0.51650   0.12929888E-02
   0.51750   0.15124280E-02
   0.51850   0.17697973E-02
   0.51950   0.20503143E-02
   0.52050   0.22874298E-02
   0.52150   0.22984436E-02
   0.52250   0.21241226E-02
   0.52350   0.18993178E-02
   0.52450   0.16691299E-02
   0.52550   0.14581739E-02
   0.52650   0.12819939E-02
   0.52750   0.11475524E-02
   0.52850   0.10553388E-02
   0.52950   0.10023486E-02
   0.53050   0.98441658E-03
   0.53150   0.99674438E-03
   0.53250   0.10267530E-02
   0.53350   0.10208749E-02
   0.53450   0.95780636E-03
   0.53550   0.88977610E-03
   0.53650   0.83008443E-03
   0.53750   0.77871326E-03
   0.53850   0.73423766E-03
   0.53950   0.69537485E-03
   0.54050   0.66111650E-03
   0.54150   0.63067040E-03
   0.54250   0.60337561E-03
   0.54350   0.57858590E-03
   0.54450   0.55544457E-03
   0.54550   0.53242757E-03
   0.54650   0.50732080E-03
   0.54750   0.48529386E-03
   0.54850   0.48765572E-03
   0.54950   0.47732503E-03
   0.55050   0.44890778E-03
   0.55150   0.42664219E-03
   0.55250   0.41059984E-03
   0.55350   0.39786220E-03
   0.55450   0.38693630E-03
   0.55550   0.37716766E-03
   0.55650   0.36825537E-03
   0.55750   0.36004017E-03
   0.55850   0.35241098E-03
   0.55950   0.34525010E-03
   0.56050   0.33840182E-03
   0.56150   0.33200541E-03
   0.56250   0.33032143E-03
   0.56350   0.35739684E-03
   0.56450   0.43019577E-03
   0.56550   0.34055673E-03
   0.56650   0.33223178E-03
   0.56750   0.33110118E-03
   0.56850   0.33483512E-03
   0.56950   0.35125815E-03
   0.57050   0.40151100E-03
   0.57150   0.44351444E-03
   0.57250   0.48153414E-03
   0.57350   0.56334760E-03
   0.57450   0.58642391E-03
   0.57550   0.85286261E-03
   0.57650   0.24997815E-01
   0.57750   0.21395933E-01
   0.57850   0.23856040E-01
   0.57950   0.19108221E-01
   0.58050   0.10271380E-01
   0.58150   0.89626275E-02
   0.58250   0.73574819E-02
   0.58350   0.61872746E-02
   0.58450   0.54538590E-02
   0.58550   0.49681370E-02
   0.58650   0.55147870E-02
   0.58750   0.49813366E-02
   0.58850   0.44831187E-02
   0.58950   0.44338615E-02
   0.59050   0.41168472E-02
   0.59150   0.36426275E-02
   0.59250   0.33860484E-02
   0.59350   0.32176063E-02
   0.59450   0.29324447E-02
   0.59550   0.26066324E-02
   0.59650   0.23744744E-02
   0.59750   0.22285238E-02
   0.59850   0.20960192E-02
   0.59950   0.19443262E-02
   0.60050   0.18095298E-02
   0.60150   0.17323531E-02
   0.60250   0.17178870E-02
   0.60350   0.17443356E-02
   0.60450   0.17818123E-02
   0.60550   0.18115254E-02
   0.60650   0.18332910E-02
   0.60750   0.18543850E-02
   0.60850   0.18758154E-02
   0.60950   0.18891901E-02
   0.61050   0.18835424E-02
   0.61150   0.18553591E-02
   0.61250   0.18126376E-02
   0.61350   0.17695447E-02
   0.61450   0.17381401E-02
   0.61550   0.17237002E-02
   0.61650   0.17222734E-02
   0.61750   0.17070043E-02
   0.61850   0.16034143E-02
   0.61950   0.14583913E-02
   0.62050   0.13538413E-02
   0.62150   0.12920108E-02
   0.62250   0.12674357E-02
   0.62350   0.12699427E-02
   0.62450   0.12843669E-02
   0.62550   0.13040563E-02
   0.62650   0.13251902E-02
   0.62750   0.13454065E-02
   0.62850   0.13636263E-02
   0.62950   0.13795637E-02
   0.63050   0.13931011E-02
   0.63150   0.14038192E-02
   0.63250   0.14108391E-02
   0.63350   0.14129770E-02
   0.63450   0.14090961E-02
   0.63550   0.13984790E-02
   0.63650   0.13810495E-02
   0.63750   0.13573611E-02
   0.63850   0.13283845E-02
   0.63950   0.12952188E-02
   0.64050   0.12588509E-02
   0.64150   0.12200400E-02
   0.64250   0.11793295E-02
   0.64350   0.11371428E-02
   0.64450   0.10939010E-02
   0.64550   0.10501073E-02
   0.64650   0.10063691E-02
   0.64750   0.96335891E-03
   0.64850   0.92173932E-03
   0.64950   0.88208803E-03
   0.65050   0.84484834E-03
   0.65150   0.81031647E-03
   0.65250   0.77866006E-03
   0.65350   0.74995350E-03
   0.65450   0.72421593E-03
   0.65550   0.70144143E-03
   0.65650   0.68161578E-03
   0.65750   0.66472223E-03
   0.65850   0.65073866E-03
   0.65950   0.63963322E-03
   0.66050   0.63136133E-03
   0.66150   0.62586821E-03
   0.66250   0.62309578E-03
   0.66350   0.62299403E-03
   0.66450   0.62553323E-03
   0.66550   0.63071522E-03
   0.66650   0.63858210E-03
   0.66750   0.64922107E-03
   0.66850   0.66276663E-03
   0.66950   0.67940168E-03
   0.67050   0.69935888E-03
   0.67150   0.72292506E-03
   0.67250   0.75045042E-03
   0.67350   0.78236486E-03
   0.67450   0.81920315E-03
   0.67550   0.86164346E-03
   0.67650   0.91056363E-03
   0.67750   0.96712826E-03
   0.67850   0.10329315E-02
   0.67950   0.11102720E-02
   0.68050   0.12028588E-02
   0.68150   0.13188364E-02
   0.68250   0.15004055E-02
   0.68350   0.24939680E-02
   0.68450   0.53751385E-02
   0.68550   0.19384701E-02
   0.68650   0.20565588E-02
   0.68750   0.21717069E-02
   0.68850   0.21079455E-02
   0.68950   0.21661264E-02
   0.69050   0.37541764E-02
   0.69150   0.10910586E-01
   0.69250   0.85412748E-02
   0.69350   0.11216680E-01
   0.69450   0.20015381E-01
   0.69550   0.19784965E-01
   0.69650   0.24132140E-01
   0.69750   0.39102584E-01
   0.69850   0.39354526E-01
   0.69950   0.11072923E-01
   0.70050   0.88125309E-02
   0.70150   0.87570921E-02
   0.70250   0.77379830E-02
   0.70350   0.79652537E-02
   0.70450   0.83876802E-02
   0.70550   0.79086041E-02
   0.70650   0.72045769E-02
   0.70750   0.67713195E-02
   0.70850   0.65085944E-02
   0.70950   0.63264961E-02
   0.71050   0.61394079E-02
   0.71150   0.58573396E-02
   0.71250   0.54776939E-02
   0.71350   0.50956146E-02
   0.71450   0.47803796E-02
   0.71550   0.45202035E-02
   0.71650   0.42738505E-02
   0.71750   0.40225391E-02
   0.71850   0.37756779E-02
   0.71950   0.35464307E-02
   0.72050   0.33348775E-02
   0.72150   0.31317722E-02
   0.72250   0.29305036E-02
   0.72350   0.27338415E-02
   0.72450   0.25508942E-02
   0.72550   0.23896671E-02
   0.72650   0.22531340E-02
   0.72750   0.21402077E-02
   0.72850   0.20482833E-02
   0.72950   0.19749627E-02
   0.73050   0.19187215E-02
   0.73150   0.18794318E-02
   0.73250   0.18598568E-02
   0.73350   0.18593278E-02
   0.73450   0.18714933E-02
   0.73550   0.18942780E-02
   0.73650   0.19259428E-02
   0.73750   0.19641218E-02
   0.73850   0.20062153E-02
   0.73950   0.20497986E-02
   0.74050   0.20928532E-02
   0.74150   0.21338293E-02
   0.74250   0.21716305E-02
   0.74350   0.22056038E-02
   0.74450   0.22355581E-02
   0.74550   0.22617651E-02
   0.74650   0.22848786E-02
   0.74750   0.23057598E-02
   0.74850   0.23252515E-02
   0.74950   0.23439880E-02
   0.75050   0.23623123E-02
   0.75150   0.23803236E-02
   0.75250   0.23980311E-02
   0.75350   0.24155364E-02
   0.75450   0.24331734E-02
   0.75550   0.24515435E-02
   0.75650   0.24714419E-02
   0.75750   0.24937058E-02
   0.75850   0.25190408E-02
   0.75950   0.25478876E-02
   0.76050   0.25803589E-02
   0.76150   0.26162628E-02
   0.76250   0.26551976E-02
   0.76350   0.26966878E-02
   0.76450   0.27403224E-02
   0.76550   0.27858573E-02
   0.76650   0.28332593E-02
   0.76750   0.28826857E-02
   0.76850   0.29344214E-02
   0.76950   0.29888027E-02
   0.77050   0.30461645E-02
   0.77150   0.31068416E-02
   0.77250   0.31712377E-02
   0.77350   0.32399734E-02
   0.77450   0.33141226E-02
   0.77550   0.33955900E-02
   0.77650   0.34878582E-02
   0.77750   0.35980192E-02
   0.77850   0.37446979E-02
   0.77950   0.40063234E-02
   0.78050   0.51108892E-02
   0.78150   0.81499126E-02
   0.78250   0.81199249E-02
   0.78350   0.51960195E-02
   0.78450   0.48033949E-02
   0.78550   0.47766189E-02
   0.78650   0.49385903E-02
   0.78750   0.53530927E-02
   0.78850   0.63703372E-02
   0.78950   0.89846384E-02
   0.79050   0.13984991E-01
   0.79150   0.24953034E-01
   0.79250   0.72513103E-01
   0.79350   0.45705479E-01
   0.79450   0.39023675E-01
   0.79550   0.39225940E-01
   0.79650   0.38279038E-01
   0.79750   0.31130174E-01
   0.79850   0.19086035E-01
   0.79950   0.15525147E-01
   0.80050   0.15722960E-01
   0.80150   0.18872438E-01
   0.80250   0.23389211E-01
   0.80350   0.25276717E-01
   0.80450   0.24517484E-01
   0.80550   0.24487136E-01
   0.80650   0.25641449E-01
   0.80750   0.25231050E-01
   0.80850   0.22370392E-01
   0.80950   0.19698741E-01
   0.81050   0.18620081E-01
   0.81150   0.18905263E-01
   0.81250   0.19319773E-01
   0.81350   0.18338485E-01
   0.81450   0.16065745E-01
   0.81550   0.13882912E-01
   0.81650   0.12513951E-01
   0.81750   0.11933452E-01
   0.81850   0.11847123E-01
   0.81950   0.11875986E-01
   0.82050   0.11705333E-01
   0.82150   0.11287661E-01
   0.82250   0.10819017E-01
   0.82350   0.10495475E-01
   0.82450   0.10396456E-01
   0.82550   0.10574416E-01
   0.82650   0.11016080E-01
   0.82750   0.11342520E-01
   0.82850   0.11479736E-01
   0.82950   0.11538059E-01
   0.83050   0.11608913E-01
   0.83150   0.11730340E-01
   0.83250   0.11896848E-01
   0.83350   0.12085389E-01
   0.83450   0.12281362E-01
   0.83550   0.12493541E-01
   0.83650   0.12752283E-01
   0.83750   0.13095289E-01
   0.83850   0.13552119E-01
   0.83950   0.14135625E-01
   0.84050   0.14840066E-01
   0.84150   0.15635127E-01
   0.84250   0.16408373E-01
   0.84350   0.16822921E-01
   0.84450   0.16967330E-01
   0.84550   0.17206127E-01
   0.84650   0.17589767E-01
   0.84750   0.18069511E-01
   0.84850   0.18469587E-01
   0.84950   0.18811788E-01
   0.85050   0.19176049E-01
   0.85150   0.19555476E-01
   0.85250   0.19933140E-01
   0.85350   0.20300210E-01
   0.85450   0.20658853E-01
   0.85550   0.21021897E-01
   0.85650   0.21412099E-01
   0.85750   0.21863721E-01
   0.85850   0.22431022E-01
   0.85950   0.23216577E-01
   0.86050   0.24470717E-01
   0.86150   0.27030086E-01
   0.86250   0.33654943E-01
   0.86350   0.24385110E-01
   0.86450   0.21777714E-01
   0.86550   0.22737844E-01
   0.86650   0.24058532E-01
   0.86750   0.25797347E-01
   0.86850   0.28520791E-01
   0.86950   0.33833489E-01
   0.87050   0.46516329E-01
   0.87150   0.65527543E-01
   0.87250   0.58244627E-01
   0.87350   0.58310118E-01
   0.87450   0.73026866E-01
   0.87550   0.62543914E-01
   0.87650   0.43958303E-01
   0.87750   0.40363077E-01
   0.87850   0.45307290E-01
   0.87950   0.49738258E-01
   0.88050   0.53098962E-01
   0.88150   0.62469836E-01
   0.88250   0.68492271E-01
   0.88350   0.70509806E-01
   0.88450   0.72396912E-01
   0.88550   0.67473881E-01
   0.88650   0.55864651E-01
   0.88750   0.44358563E-01
   0.88850   0.38062632E-01
   0.88950   0.37091263E-01
   0.89050   0.37520565E-01
   0.89150   0.38715232E-01
   0.89250   0.41899305E-01
   0.89350   0.46420712E-01
   0.89450   0.48195969E-01
   0.89550   0.46998143E-01
   0.89650   0.45482650E-01
   0.89750   0.44593982E-01
   0.89850   0.44367358E-01
   0.89950   0.44708967E-01
   0.90050   0.46174113E-01
   0.90150   0.49581435E-01
   0.90250   0.53514291E-01
   0.90350   0.57474807E-01
   0.90450   0.61754823E-01
   0.90550   0.66551127E-01
   0.90650   0.71884826E-01
   0.90750   0.77708095E-01
   0.90850   0.83952904E-01
   0.90950   0.90587214E-01
   0.91050   0.97687840E-01
   0.91150   0.10541976E+00
   0.91250   0.11384026E+00
   0.91350   0.12260274E+00
   0.91450   0.13080207E+00
   0.91550   0.13726901E+00
   0.91650   0.14126034E+00
   0.91750   0.14289962E+00
   0.91850   0.14295119E+00
   0.91950   0.14230920E+00
   0.92050   0.14168410E+00
   0.92150   0.14155656E+00
   0.92250   0.14226121E+00
   0.92350   0.14408937E+00
   0.92450   0.14737068E+00
   0.92550   0.15254501E+00
   0.92650   0.16029827E+00
   0.92750   0.17190892E+00
   0.92850   0.18242027E+00
   0.92950   0.18272246E+00
   0.93050   0.19627237E+00
   0.93150   0.20991772E+00
   0.93250   0.22102468E+00
   0.93350   0.22851135E+00
   0.93450   0.23241530E+00
   0.93550   0.23388034E+00
   0.93650   0.23486000E+00
   0.93750   0.23797873E+00
   0.93850   0.24521543E+00
   0.93950   0.24750018E+00
   0.94050   0.23586398E+00
   0.94150   0.22944459E+00
   0.94250   0.22973038E+00
   0.94350   0.23674019E+00
   0.94450   0.25111049E+00
   0.94550   0.26439676E+00
   0.94650   0.27675626E+00
   0.94750   0.28969425E+00
   0.94850   0.30307490E+00
   0.94950   0.31603447E+00
   0.95050   0.32759741E+00
   0.95150   0.33684653E+00
   0.95250   0.34306261E+00
   0.95350   0.34678832E+00
   0.95450   0.35169262E+00
   0.95550   0.36657706E+00
   0.95650   0.39058873E+00
   0.95750   0.41537338E+00
   0.95850   0.43800142E+00
   0.95950   0.45711434E+00
   0.96050   0.47497380E+00
   0.96150   0.49257615E+00
   0.96250   0.50876760E+00
   0.96350   0.52199668E+00
   0.96450   0.53282690E+00
   0.96550   0.54330653E+00
   0.96650   0.55480796E+00
   0.96750   0.56788391E+00
   0.96850   0.58269894E+00
   0.96950   0.59915590E+00
   0.97050   0.61694556E+00
   0.97150   0.63566625E+00
   0.97250   0.65497196E+00
   0.97350   0.67465258E+00
   0.97450   0.69446623E+00
   0.97550   0.71367514E+00
   0.97650   0.73171061E+00
   0.97750   0.74717289E+00
   0.97850   0.75766474E+00
   0.97950   0.76256245E+00
   0.98050   0.76343149E+00
   0.98150   0.76211309E+00
   0.98250   0.75919086E+00
   0.98350   0.75470638E+00
   0.98450   0.74891031E+00
   0.98550   0.74268222E+00
   0.98650   0.73767906E+00
   0.98750   0.73598200E+00
   0.98850   0.73953497E+00
   0.98950   0.74913156E+00
   0.99050   0.76285160E+00
   0.99150   0.77837318E+00
   0.99250   0.79344153E+00
   0.99350   0.80606258E+00
   0.99450   0.81523710E+00
   0.99550   0.82370889E+00
   0.99650   0.83383626E+00
   0.99750   0.84465414E+00
   0.99850   0.85193717E+00
   0.99950   0.85253727E+00
