# Transmission, k-averaged
# Date: 2021-05-13
#   E [eV]           T [G0]
   0.00050   0.39723560E+00
   0.00150   0.13107227E+00
   0.00250   0.27318195E-01
   0.00350   0.15974995E-01
   0.00450   0.11842663E+00
   0.00550   0.58522583E-02
   0.00650   0.75218081E-01
   0.00750   0.43230047E-02
   0.00850   0.16802091E-01
   0.00950   0.10810905E-01
   0.01050   0.37912836E-02
   0.01150   0.11249486E-01
   0.01250   0.31534784E-01
   0.01350   0.44224225E-02
   0.01450   0.39819502E-02
   0.01550   0.14167689E-01
   0.01650   0.40974546E-01
   0.01750   0.53989911E-02
   0.01850   0.34134428E-02
   0.01950   0.51361979E-02
   0.02050   0.25730191E-01
   0.02150   0.29028384E-01
   0.02250   0.54702396E-02
   0.02350   0.32807374E-02
   0.02450   0.37617099E-02
   0.02550   0.86779818E-02
   0.02650   0.67284726E-01
   0.02750   0.14941325E-01
   0.02850   0.45124101E-02
   0.02950   0.29778113E-02
   0.03050   0.32405893E-02
   0.03150   0.59986766E-02
   0.03250   0.28226793E-01
   0.03350   0.32747470E-01
   0.03450   0.60848654E-02
   0.03550   0.29651809E-02
   0.03650   0.24020725E-02
   0.03750   0.29528136E-02
   0.03850   0.61474540E-02
   0.03950   0.35146955E-01
   0.04050   0.18592382E-01
   0.04150   0.41848817E-02
   0.04250   0.22042827E-02
   0.04350   0.18964368E-02
   0.04450   0.25480816E-02
   0.04550   0.53523295E-02
   0.04650   0.98564103E-02
   0.04750   0.57435855E-02
   0.04850   0.28954353E-02
   0.04950   0.19706585E-02
   0.05050   0.17438987E-02
   0.05150   0.19029832E-02
   0.05250   0.24375103E-02
   0.05350   0.33714888E-02
   0.05450   0.42974129E-02
   0.05550   0.43939045E-02
   0.05650   0.38573819E-02
   0.05750   0.33855140E-02
   0.05850   0.32048353E-02
   0.05950   0.33129470E-02
   0.06050   0.36763970E-02
   0.06150   0.42287265E-02
   0.06250   0.48076184E-02
   0.06350   0.51749363E-02
   0.06450   0.52098716E-02
   0.06550   0.50221393E-02
   0.06650   0.48011593E-02
   0.06750   0.46670446E-02
   0.06850   0.46581887E-02
   0.06950   0.47638640E-02
   0.07050   0.49443101E-02
   0.07150   0.51407395E-02
   0.07250   0.52908971E-02
   0.07350   0.53538610E-02
   0.07450   0.53281388E-02
   0.07550   0.52462872E-02
   0.07650   0.51524281E-02
   0.07750   0.50823521E-02
   0.07850   0.50555542E-02
   0.07950   0.50758519E-02
   0.08050   0.51350044E-02
   0.08150   0.52168965E-02
   0.08250   0.53023174E-02
   0.08350   0.53745066E-02
   0.08450   0.54243128E-02
   0.08550   0.54528541E-02
   0.08650   0.54704403E-02
   0.08750   0.54926216E-02
   0.08850   0.55353963E-02
   0.08950   0.56104544E-02
   0.09050   0.57160924E-02
   0.09150   0.57931994E-02
   0.09250   0.56230258E-02
   0.09350   0.52498798E-02
   0.09450   0.48880437E-02
   0.09550   0.45672646E-02
   0.09650   0.42828782E-02
   0.09750   0.40302644E-02
   0.09850   0.38063836E-02
   0.09950   0.36086731E-02
   0.10050   0.34343721E-02
   0.10150   0.32803535E-02
   0.10250   0.31432526E-02
   0.10350   0.30197233E-02
   0.10450   0.29067113E-02
   0.10550   0.28016777E-02
   0.10650   0.27027398E-02
   0.10750   0.26087014E-02
   0.10850   0.25189824E-02
   0.10950   0.24334698E-02
   0.11050   0.23523287E-02
   0.11150   0.22758173E-02
   0.11250   0.22041381E-02
   0.11350   0.21373415E-02
   0.11450   0.20752873E-02
   0.11550   0.20176528E-02
   0.11650   0.19639763E-02
   0.11750   0.19137188E-02
   0.11850   0.18663341E-02
   0.11950   0.18213301E-02
   0.12050   0.17783156E-02
   0.12150   0.17370265E-02
   0.12250   0.16973284E-02
   0.12350   0.16591997E-02
   0.12450   0.16226990E-02
   0.12550   0.15879268E-02
   0.12650   0.15549863E-02
   0.12750   0.15239520E-02
   0.12850   0.14948482E-02
   0.12950   0.14676392E-02
   0.13050   0.14422328E-02
   0.13150   0.14184898E-02
   0.13250   0.13962436E-02
   0.13350   0.13753196E-02
   0.13450   0.13555555E-02
   0.13550   0.13368189E-02
   0.13650   0.13190176E-02
   0.13750   0.13021043E-02
   0.13850   0.12860741E-02
   0.13950   0.12709555E-02
   0.14050   0.12567989E-02
   0.14150   0.12436610E-02
   0.14250   0.12315920E-02
   0.14350   0.12206234E-02
   0.14450   0.12107604E-02
   0.14550   0.12019790E-02
   0.14650   0.11942261E-02
   0.14750   0.11874251E-02
   0.14850   0.11814836E-02
   0.14950   0.11763027E-02
   0.15050   0.11717867E-02
   0.15150   0.11678520E-02
   0.15250   0.11644333E-02
   0.15350   0.11614872E-02
   0.15450   0.11589912E-02
   0.15550   0.11569414E-02
   0.15650   0.11553452E-02
   0.15750   0.11542145E-02
   0.15850   0.11535563E-02
   0.15950   0.11533659E-02
   0.16050   0.11536205E-02
   0.16150   0.11542753E-02
   0.16250   0.11552620E-02
   0.16350   0.11564913E-02
   0.16450   0.11578550E-02
   0.16550   0.11592299E-02
   0.16650   0.11604808E-02
   0.16750   0.11614581E-02
   0.16850   0.11619864E-02
   0.16950   0.11618329E-02
   0.17050   0.11606344E-02
   0.17150   0.11577263E-02
   0.17250   0.11517007E-02
   0.17350   0.11390846E-02
   0.17450   0.11095459E-02
   0.17550   0.10324612E-02
   0.17650   0.90645283E-03
   0.17750   0.80004625E-03
   0.17850   0.72001980E-03
   0.17950   0.65745547E-03
   0.18050   0.60659595E-03
   0.18150   0.56402793E-03
   0.18250   0.52761519E-03
   0.18350   0.49594225E-03
   0.18450   0.46802542E-03
   0.18550   0.44315468E-03
   0.18650   0.42080114E-03
   0.18750   0.40056041E-03
   0.18850   0.38211644E-03
   0.18950   0.36521739E-03
   0.19050   0.34965907E-03
   0.19150   0.33527371E-03
   0.19250   0.32192160E-03
   0.19350   0.30948527E-03
   0.19450   0.29786531E-03
   0.19550   0.28697742E-03
   0.19650   0.27675007E-03
   0.19750   0.26712316E-03
   0.19850   0.25804690E-03
   0.19950   0.24948132E-03
   0.20050   0.24139593E-03
   0.20150   0.23376968E-03
   0.20250   0.22659145E-03
   0.20350   0.21986065E-03
   0.20450   0.21358840E-03
   0.20550   0.20779921E-03
   0.20650   0.20253366E-03
   0.20750   0.19785226E-03
   0.20850   0.19384129E-03
   0.20950   0.19062175E-03
   0.21050   0.18836367E-03
   0.21150   0.18730966E-03
   0.21250   0.18781722E-03
   0.21350   0.19044071E-03
   0.21450   0.19611295E-03
   0.21550   0.20661793E-03
   0.21650   0.22606309E-03
   0.21750   0.26395626E-03
   0.21850   0.31932688E-03
   0.21950   0.37472864E-03
   0.22050   0.42863408E-03
   0.22150   0.48283525E-03
   0.22250   0.53849869E-03
   0.22350   0.59638871E-03
   0.22450   0.65710105E-03
   0.22550   0.72119315E-03
   0.22650   0.78927161E-03
   0.22750   0.86206966E-03
   0.22850   0.94053708E-03
   0.22950   0.10259635E-02
   0.23050   0.11201600E-02
   0.23150   0.12257143E-02
   0.23250   0.13461341E-02
   0.23350   0.14837221E-02
   0.23450   0.16159837E-02
   0.23550   0.16597507E-02
   0.23650   0.16412243E-02
   0.23750   0.16108137E-02
   0.23850   0.15791974E-02
   0.23950   0.15481098E-02
   0.24050   0.15176758E-02
   0.24150   0.14877357E-02
   0.24250   0.14581208E-02
   0.24350   0.14287082E-02
   0.24450   0.13994236E-02
   0.24550   0.13702328E-02
   0.24650   0.13411333E-02
   0.24750   0.13121458E-02
   0.24850   0.12833087E-02
   0.24950   0.12546728E-02
   0.25050   0.12262986E-02
   0.25150   0.11982536E-02
   0.25250   0.11706098E-02
   0.25350   0.11434432E-02
   0.25450   0.11168318E-02
   0.25550   0.10908555E-02
   0.25650   0.10655946E-02
   0.25750   0.10411302E-02
   0.25850   0.10175426E-02
   0.25950   0.99491142E-03
   0.26050   0.97331539E-03
   0.26150   0.95283129E-03
   0.26250   0.93353412E-03
   0.26350   0.91549638E-03
   0.26450   0.89878764E-03
   0.26550   0.88347448E-03
   0.26650   0.86961960E-03
   0.26750   0.85728173E-03
   0.26850   0.84651512E-03
   0.26950   0.83736907E-03
   0.27050   0.82988758E-03
   0.27150   0.82410907E-03
   0.27250   0.82006591E-03
   0.27350   0.81778417E-03
   0.27450   0.81728364E-03
   0.27550   0.81857771E-03
   0.27650   0.82167319E-03
   0.27750   0.82657102E-03
   0.27850   0.83326612E-03
   0.27950   0.84174838E-03
   0.28050   0.85200311E-03
   0.28150   0.86401211E-03
   0.28250   0.87775494E-03
   0.28350   0.89320989E-03
   0.28450   0.91035571E-03
   0.28550   0.92917337E-03
   0.28650   0.94964745E-03
   0.28750   0.97176805E-03
   0.28850   0.99553226E-03
   0.28950   0.10209449E-02
   0.29050   0.10480174E-02
   0.29150   0.10767635E-02
   0.29250   0.11071850E-02
   0.29350   0.11392364E-02
   0.29450   0.11727291E-02
   0.29550   0.12070620E-02
   0.29650   0.12403434E-02
   0.29750   0.12659481E-02
   0.29850   0.12575875E-02
   0.29950   0.11680439E-02
   0.30050   0.10572999E-02
   0.30150   0.96955732E-03
   0.30250   0.90107170E-03
   0.30350   0.84593130E-03
   0.30450   0.80028438E-03
   0.30550   0.76167163E-03
   0.30650   0.72845852E-03
   0.30750   0.69951243E-03
   0.30850   0.67401939E-03
   0.30950   0.65137667E-03
   0.31050   0.63112669E-03
   0.31150   0.61291462E-03
   0.31250   0.59646042E-03
   0.31350   0.58153982E-03
   0.31450   0.56797068E-03
   0.31550   0.55560359E-03
   0.31650   0.54431468E-03
   0.31750   0.53400034E-03
   0.31850   0.52457332E-03
   0.31950   0.51595957E-03
   0.32050   0.50809601E-03
   0.32150   0.50092855E-03
   0.32250   0.49441063E-03
   0.32350   0.48850203E-03
   0.32450   0.48316794E-03
   0.32550   0.47837809E-03
   0.32650   0.47410617E-03
   0.32750   0.47032922E-03
   0.32850   0.46702722E-03
   0.32950   0.46418261E-03
   0.33050   0.46178006E-03
   0.33150   0.45980603E-03
   0.33250   0.45824854E-03
   0.33350   0.45709690E-03
   0.33450   0.45634137E-03
   0.33550   0.45597291E-03
   0.33650   0.45598284E-03
   0.33750   0.45636244E-03
   0.33850   0.45710258E-03
   0.33950   0.45819313E-03
   0.34050   0.45962213E-03
   0.34150   0.46137502E-03
   0.34250   0.46343307E-03
   0.34350   0.46577159E-03
   0.34450   0.46835700E-03
   0.34550   0.47114227E-03
   0.34650   0.47405975E-03
   0.34750   0.47700878E-03
   0.34850   0.47983383E-03
   0.34950   0.48228324E-03
   0.35050   0.48392612E-03
   0.35150   0.48397266E-03
   0.35250   0.48085328E-03
   0.35350   0.47115245E-03
   0.35450   0.44682005E-03
   0.35550   0.38984619E-03
   0.35650   0.29206311E-03
   0.35750   0.27924214E-03
   0.35850   0.37555184E-03
   0.35950   0.44584868E-03
   0.36050   0.48366105E-03
   0.36150   0.50620304E-03
   0.36250   0.52673841E-03
   0.36350   0.55798539E-03
   0.36450   0.59572706E-03
   0.36550   0.63580205E-03
   0.36650   0.67830522E-03
   0.36750   0.72400633E-03
   0.36850   0.77378884E-03
   0.36950   0.82862220E-03
   0.37050   0.88961067E-03
   0.37150   0.95806184E-03
   0.37250   0.10355751E-02
   0.37350   0.11241605E-02
   0.37450   0.12264078E-02
   0.37550   0.13457371E-02
   0.37650   0.14867842E-02
   0.37750   0.16560053E-02
   0.37850   0.18626070E-02
   0.37950   0.21196459E-02
   0.38050   0.24421085E-02
   0.38150   0.28085934E-02
   0.38250   0.29897895E-02
   0.38350   0.29138173E-02
   0.38450   0.27867660E-02
   0.38550   0.26647989E-02
   0.38650   0.25539650E-02
   0.38750   0.24520273E-02
   0.38850   0.23548929E-02
   0.38950   0.22567890E-02
   0.39050   0.21478517E-02
   0.39150   0.20125112E-02
   0.39250   0.19787750E-02
   0.39350   0.21008481E-02
   0.39450   0.19599127E-02
   0.39550   0.17463306E-02
   0.39650   0.14736746E-02
   0.39750   0.14693574E-02
   0.39850   0.19286121E-02
   0.39950   0.20580904E-02
   0.40050   0.19798959E-02
   0.40150   0.18690226E-02
   0.40250   0.17460695E-02
   0.40350   0.16124438E-02
   0.40450   0.14734663E-02
   0.40550   0.13491511E-02
   0.40650   0.12867830E-02
   0.40750   0.13675147E-02
   0.40850   0.17008012E-02
   0.40950   0.35987545E-02
   0.41050   0.31549521E-02
   0.41150   0.40786243E-02
   0.41250   0.51705055E-02
   0.41350   0.62976205E-02
   0.41450   0.74654664E-02
   0.41550   0.74368129E-02
   0.41650   0.49972390E-02
   0.41750   0.45411168E-02
   0.41850   0.40344093E-02
   0.41950   0.36106147E-02
   0.42050   0.31808866E-02
   0.42150   0.28513870E-02
   0.42250   0.25831510E-02
   0.42350   0.23498924E-02
   0.42450   0.21505943E-02
   0.42550   0.19741796E-02
   0.42650   0.18167052E-02
   0.42750   0.16782847E-02
   0.42850   0.15556127E-02
   0.42950   0.14443324E-02
   0.43050   0.13424313E-02
   0.43150   0.12498320E-02
   0.43250   0.11665074E-02
   0.43350   0.10916621E-02
   0.43450   0.10241182E-02
   0.43550   0.96286897E-03
   0.43650   0.90724917E-03
   0.43750   0.85678429E-03
   0.43850   0.81100379E-03
   0.43950   0.76938880E-03
   0.44050   0.73142757E-03
   0.44150   0.69668301E-03
   0.44250   0.66481967E-03
   0.44350   0.63558534E-03
   0.44450   0.60876901E-03
   0.44550   0.58416493E-03
   0.44650   0.56156068E-03
   0.44750   0.54074847E-03
   0.44850   0.52154512E-03
   0.44950   0.50380791E-03
   0.45050   0.48743773E-03
   0.45150   0.47236955E-03
   0.45250   0.45855448E-03
   0.45350   0.44594292E-03
   0.45450   0.43447502E-03
   0.45550   0.42408117E-03
   0.45650   0.41469021E-03
   0.45750   0.40624032E-03
   0.45850   0.39868741E-03
   0.45950   0.39200715E-03
   0.46050   0.38619016E-03
   0.46150   0.38123236E-03
   0.46250   0.37712423E-03
   0.46350   0.37384382E-03
   0.46450   0.37135521E-03
   0.46550   0.36961309E-03
   0.46650   0.36857137E-03
   0.46750   0.36819209E-03
   0.46850   0.36845150E-03
   0.46950   0.36934155E-03
   0.47050   0.37086624E-03
   0.47150   0.37303459E-03
   0.47250   0.37585350E-03
   0.47350   0.37932262E-03
   0.47450   0.38343386E-03
   0.47550   0.38817490E-03
   0.47650   0.39353609E-03
   0.47750   0.39951756E-03
   0.47850   0.40613432E-03
   0.47950   0.41341738E-03
   0.48050   0.42141075E-03
   0.48150   0.43016518E-03
   0.48250   0.43973138E-03
   0.48350   0.45015491E-03
   0.48450   0.46147429E-03
   0.48550   0.47372223E-03
   0.48650   0.48692693E-03
   0.48750   0.50110789E-03
   0.48850   0.51625702E-03
   0.48950   0.53229497E-03
   0.49050   0.54898893E-03
   0.49150   0.56582293E-03
   0.49250   0.58182160E-03
   0.49350   0.59536227E-03
   0.49450   0.60408859E-03
   0.49550   0.60516578E-03
   0.49650   0.59628603E-03
   0.49750   0.57808391E-03
   0.49850   0.55785058E-03
   0.49950   0.53889875E-03
   0.50050   0.51937357E-03
   0.50150   0.50487887E-03
   0.50250   0.49994764E-03
   0.50350   0.50615612E-03
   0.50450   0.52319933E-03
   0.50550   0.55009889E-03
   0.50650   0.58595999E-03
   0.50750   0.63032785E-03
   0.50850   0.68331714E-03
   0.50950   0.74564992E-03
   0.51050   0.81867905E-03
   0.51150   0.90443634E-03
   0.51250   0.10057215E-02
   0.51350   0.11262292E-02
   0.51450   0.12706834E-02
   0.51550   0.14448930E-02
   0.51650   0.16555493E-02
   0.51750   0.19094059E-02
   0.51850   0.22108811E-02
   0.51950   0.25524646E-02
   0.52050   0.28523279E-02
   0.52150   0.28334106E-02
   0.52250   0.25714755E-02
   0.52350   0.22865774E-02
   0.52450   0.20322858E-02
   0.52550   0.18213979E-02
   0.52650   0.16553992E-02
   0.52750   0.15306013E-02
   0.52850   0.14413230E-02
   0.52950   0.13817454E-02
   0.53050   0.13465516E-02
   0.53150   0.13299099E-02
   0.53250   0.13184015E-02
   0.53350   0.12733403E-02
   0.53450   0.11997698E-02
   0.53550   0.11358219E-02
   0.53650   0.10845130E-02
   0.53750   0.10430337E-02
   0.53850   0.10092676E-02
   0.53950   0.98194671E-03
   0.54050   0.96046110E-03
   0.54150   0.94481598E-03
   0.54250   0.93579636E-03
   0.54350   0.93547284E-03
   0.54450   0.94839564E-03
   0.54550   0.98406675E-03
   0.54650   0.10592564E-02
   0.54750   0.11764244E-02
   0.54850   0.12229502E-02
   0.54950   0.11080131E-02
   0.55050   0.98474079E-03
   0.55150   0.91162353E-03
   0.55250   0.87172241E-03
   0.55350   0.84963260E-03
   0.55450   0.83748985E-03
   0.55550   0.83144841E-03
   0.55650   0.82954904E-03
   0.55750   0.83073601E-03
   0.55850   0.83439908E-03
   0.55950   0.84013003E-03
   0.56050   0.84753887E-03
   0.56150   0.85609494E-03
   0.56250   0.86582400E-03
   0.56350   0.87794947E-03
   0.56450   0.99668547E-03
   0.56550   0.96146879E-03
   0.56650   0.97881013E-03
   0.56750   0.10064517E-02
   0.56850   0.10409586E-02
   0.56950   0.10817740E-02
   0.57050   0.11302063E-02
   0.57150   0.11949677E-02
   0.57250   0.12791344E-02
   0.57350   0.14031087E-02
   0.57450   0.16412851E-02
   0.57550   0.18338362E-02
   0.57650   0.22930605E-02
   0.57750   0.29918144E-02
   0.57850   0.44365465E-02
   0.57950   0.45256950E-02
   0.58050   0.37418786E-02
   0.58150   0.33049439E-02
   0.58250   0.29294738E-02
   0.58350   0.30350138E-02
   0.58450   0.30505974E-02
   0.58550   0.30202379E-02
   0.58650   0.34934185E-02
   0.58750   0.32116680E-02
   0.58850   0.30713768E-02
   0.58950   0.32197007E-02
   0.59050   0.30482947E-02
   0.59150   0.27144444E-02
   0.59250   0.25571596E-02
   0.59350   0.24684861E-02
   0.59450   0.22798814E-02
   0.59550   0.20590096E-02
   0.59650   0.19238084E-02
   0.59750   0.18731079E-02
   0.59850   0.18416668E-02
   0.59950   0.17870539E-02
   0.60050   0.17303193E-02
   0.60150   0.17095819E-02
   0.60250   0.17354087E-02
   0.60350   0.17914047E-02
   0.60450   0.18526159E-02
   0.60550   0.19068138E-02
   0.60650   0.19613816E-02
   0.60750   0.20300082E-02
   0.60850   0.21179789E-02
   0.60950   0.22187207E-02
   0.61050   0.23202556E-02
   0.61150   0.24158738E-02
   0.61250   0.25102275E-02
   0.61350   0.26153640E-02
   0.61450   0.27413832E-02
   0.61550   0.28890832E-02
   0.61650   0.30443568E-02
   0.61750   0.31524610E-02
   0.61850   0.30578910E-02
   0.61950   0.28211647E-02
   0.62050   0.26131961E-02
   0.62150   0.24557749E-02
   0.62250   0.23456705E-02
   0.62350   0.22653916E-02
   0.62450   0.21922919E-02
   0.62550   0.21206290E-02
   0.62650   0.20491353E-02
   0.62750   0.19786772E-02
   0.62850   0.19115009E-02
   0.62950   0.18500233E-02
   0.63050   0.17958083E-02
   0.63150   0.17491167E-02
   0.63250   0.17090295E-02
   0.63350   0.16739471E-02
   0.63450   0.16422145E-02
   0.63550   0.16126477E-02
   0.63650   0.15847996E-02
   0.63750   0.15589169E-02
   0.63850   0.15356612E-02
   0.63950   0.15157466E-02
   0.64050   0.14996417E-02
   0.64150   0.14874219E-02
   0.64250   0.14787819E-02
   0.64350   0.14731708E-02
   0.64450   0.14699827E-02
   0.64550   0.14687338E-02
   0.64650   0.14691727E-02
   0.64750   0.14712968E-02
   0.64850   0.14752860E-02
   0.64950   0.14813890E-02
   0.65050   0.14898095E-02
   0.65150   0.15006291E-02
   0.65250   0.15137849E-02
   0.65350   0.15290994E-02
   0.65450   0.15463463E-02
   0.65550   0.15653272E-02
   0.65650   0.15859349E-02
   0.65750   0.16081888E-02
   0.65850   0.16322327E-02
   0.65950   0.16583051E-02
   0.66050   0.16866933E-02
   0.66150   0.17176896E-02
   0.66250   0.17515623E-02
   0.66350   0.17885506E-02
   0.66450   0.18288817E-02
   0.66550   0.18728046E-02
   0.66650   0.19206324E-02
   0.66750   0.19727827E-02
   0.66850   0.20298087E-02
   0.66950   0.20924234E-02
   0.67050   0.21615147E-02
   0.67150   0.22381591E-02
   0.67250   0.23236463E-02
   0.67350   0.24195202E-02
   0.67450   0.25276514E-02
   0.67550   0.26503522E-02
   0.67650   0.27905565E-02
   0.67750   0.29520963E-02
   0.67850   0.31401555E-02
   0.67950   0.33621136E-02
   0.68050   0.36295005E-02
   0.68150   0.39644660E-02
   0.68250   0.44362992E-02
   0.68350   0.53191530E-02
   0.68450   0.55623390E-02
   0.68550   0.57987678E-02
   0.68650   0.66296333E-02
   0.68750   0.70087253E-02
   0.68850   0.67614373E-02
   0.68950   0.64504258E-02
   0.69050   0.63750949E-02
   0.69150   0.76204669E-02
   0.69250   0.74409652E-02
   0.69350   0.78240735E-02
   0.69450   0.86171087E-02
   0.69550   0.86349258E-02
   0.69650   0.10140269E-01
   0.69750   0.10484223E-01
   0.69850   0.14009786E-01
   0.69950   0.10631324E-01
   0.70050   0.84213382E-02
   0.70150   0.86398879E-02
   0.70250   0.78103347E-02
   0.70350   0.74706972E-02
   0.70450   0.72481511E-02
   0.70550   0.67685116E-02
   0.70650   0.62771630E-02
   0.70750   0.59429775E-02
   0.70850   0.56955465E-02
   0.70950   0.55051260E-02
   0.71050   0.53693070E-02
   0.71150   0.52687358E-02
   0.71250   0.51846695E-02
   0.71350   0.51182988E-02
   0.71450   0.50760163E-02
   0.71550   0.50515835E-02
   0.71650   0.50310288E-02
   0.71750   0.50080717E-02
   0.71850   0.49898447E-02
   0.71950   0.49860352E-02
   0.72050   0.49952590E-02
   0.72150   0.50026122E-02
   0.72250   0.49897199E-02
   0.72350   0.49493266E-02
   0.72450   0.48912559E-02
   0.72550   0.48341956E-02
   0.72650   0.47928034E-02
   0.72750   0.47708270E-02
   0.72850   0.47617890E-02
   0.72950   0.47542141E-02
   0.73050   0.47386922E-02
   0.73150   0.47149546E-02
   0.73250   0.46983687E-02
   0.73350   0.46984199E-02
   0.73450   0.47073411E-02
   0.73550   0.47287750E-02
   0.73650   0.47647990E-02
   0.73750   0.48130490E-02
   0.73850   0.48691216E-02
   0.73950   0.49292538E-02
   0.74050   0.49919817E-02
   0.74150   0.50583798E-02
   0.74250   0.51311255E-02
   0.74350   0.52130562E-02
   0.74450   0.53059594E-02
   0.74550   0.54100654E-02
   0.74650   0.55242721E-02
   0.74750   0.56468118E-02
   0.74850   0.57759397E-02
   0.74950   0.59103714E-02
   0.75050   0.60493904E-02
   0.75150   0.61927047E-02
   0.75250   0.63402234E-02
   0.75350   0.64918697E-02
   0.75450   0.66475100E-02
   0.75550   0.68069841E-02
   0.75650   0.69701802E-02
   0.75750   0.71370993E-02
   0.75850   0.73078694E-02
   0.75950   0.74827103E-02
   0.76050   0.76618791E-02
   0.76150   0.78456365E-02
   0.76250   0.80342600E-02
   0.76350   0.82281036E-02
   0.76450   0.84277047E-02
   0.76550   0.86338725E-02
   0.76650   0.88477666E-02
   0.76750   0.90709087E-02
   0.76850   0.93051568E-02
   0.76950   0.95526408E-02
   0.77050   0.98157125E-02
   0.77150   0.10096949E-01
   0.77250   0.10399277E-01
   0.77350   0.10726301E-01
   0.77450   0.11082921E-01
   0.77550   0.11476510E-01
   0.77650   0.11919232E-01
   0.77750   0.12433512E-01
   0.77850   0.13068865E-01
   0.77950   0.13976664E-01
   0.78050   0.15752649E-01
   0.78150   0.15033202E-01
   0.78250   0.15228514E-01
   0.78350   0.15265516E-01
   0.78450   0.15754305E-01
   0.78550   0.16387781E-01
   0.78650   0.17192774E-01
   0.78750   0.18243970E-01
   0.78850   0.19692820E-01
   0.78950   0.21774570E-01
   0.79050   0.24340712E-01
   0.79150   0.27601672E-01
   0.79250   0.30538624E-01
   0.79350   0.26683053E-01
   0.79450   0.28058140E-01
   0.79550   0.27001403E-01
   0.79650   0.25645286E-01
   0.79750   0.24065610E-01
   0.79850   0.22710457E-01
   0.79950   0.20884132E-01
   0.80050   0.19525478E-01
   0.80150   0.19098671E-01
   0.80250   0.19284710E-01
   0.80350   0.19360892E-01
   0.80450   0.19046765E-01
   0.80550   0.19009661E-01
   0.80650   0.19620979E-01
   0.80750   0.20097675E-01
   0.80850   0.19601064E-01
   0.80950   0.18675584E-01
   0.81050   0.17949898E-01
   0.81150   0.17657062E-01
   0.81250   0.17724061E-01
   0.81350   0.17744578E-01
   0.81450   0.17443761E-01
   0.81550   0.17001957E-01
   0.81650   0.16660370E-01
   0.81750   0.16523596E-01
   0.81850   0.16599225E-01
   0.81950   0.16799845E-01
   0.82050   0.16979808E-01
   0.82150   0.17078027E-01
   0.82250   0.17188260E-01
   0.82350   0.17454036E-01
   0.82450   0.17968828E-01
   0.82550   0.18801905E-01
   0.82650   0.19945225E-01
   0.82750   0.21000251E-01
   0.82850   0.21803400E-01
   0.82950   0.22442900E-01
   0.83050   0.23069823E-01
   0.83150   0.23809118E-01
   0.83250   0.24715280E-01
   0.83350   0.25767792E-01
   0.83450   0.26897330E-01
   0.83550   0.28030517E-01
   0.83650   0.29129781E-01
   0.83750   0.30205438E-01
   0.83850   0.31299207E-01
   0.83950   0.32457408E-01
   0.84050   0.33708457E-01
   0.84150   0.35032004E-01
   0.84250   0.36209613E-01
   0.84350   0.36466394E-01
   0.84450   0.36033649E-01
   0.84550   0.35798155E-01
   0.84650   0.35856318E-01
   0.84750   0.36083058E-01
   0.84850   0.36167663E-01
   0.84950   0.36209963E-01
   0.85050   0.36360778E-01
   0.85150   0.36605813E-01
   0.85250   0.36914837E-01
   0.85350   0.37268437E-01
   0.85450   0.37659917E-01
   0.85550   0.38092494E-01
   0.85650   0.38574811E-01
   0.85750   0.39116293E-01
   0.85850   0.39723352E-01
   0.85950   0.40396750E-01
   0.86050   0.41128937E-01
   0.86150   0.41893914E-01
   0.86250   0.42582117E-01
   0.86350   0.43574087E-01
   0.86450   0.44617612E-01
   0.86550   0.45576151E-01
   0.86650   0.46547204E-01
   0.86750   0.47560807E-01
   0.86850   0.48664451E-01
   0.86950   0.49958102E-01
   0.87050   0.51619530E-01
   0.87150   0.53365327E-01
   0.87250   0.55266798E-01
   0.87350   0.60444307E-01
   0.87450   0.70776381E-01
   0.87550   0.74869387E-01
   0.87650   0.70575885E-01
   0.87750   0.69457121E-01
   0.87850   0.69534153E-01
   0.87950   0.67562677E-01
   0.88050   0.71685754E-01
   0.88150   0.83195150E-01
   0.88250   0.89067891E-01
   0.88350   0.88090733E-01
   0.88450   0.87344594E-01
   0.88550   0.91576427E-01
   0.88650   0.96262120E-01
   0.88750   0.96406929E-01
   0.88850   0.10164230E+00
   0.88950   0.10749232E+00
   0.89050   0.10403911E+00
   0.89150   0.10028731E+00
   0.89250   0.10104791E+00
   0.89350   0.10397296E+00
   0.89450   0.10289560E+00
   0.89550   0.98836929E-01
   0.89650   0.95740885E-01
   0.89750   0.94948083E-01
   0.89850   0.97037852E-01
   0.89950   0.10219499E+00
   0.90050   0.11003542E+00
   0.90150   0.11940856E+00
   0.90250   0.12713237E+00
   0.90350   0.13308859E+00
   0.90450   0.13810736E+00
   0.90550   0.14237925E+00
   0.90650   0.14602108E+00
   0.90750   0.14934938E+00
   0.90850   0.15283398E+00
   0.90950   0.15694024E+00
   0.91050   0.16201311E+00
   0.91150   0.16825254E+00
   0.91250   0.17570505E+00
   0.91350   0.18416150E+00
   0.91450   0.19300678E+00
   0.91550   0.20130974E+00
   0.91650   0.20831344E+00
   0.91750   0.21389174E+00
   0.91850   0.21847846E+00
   0.91950   0.22266307E+00
   0.92050   0.22689651E+00
   0.92150   0.23142283E+00
   0.92250   0.23633011E+00
   0.92350   0.24161942E+00
   0.92450   0.24725087E+00
   0.92550   0.25315377E+00
   0.92650   0.25918737E+00
   0.92750   0.26518413E+00
   0.92850   0.27625918E+00
   0.92950   0.29019019E+00
   0.93050   0.29691979E+00
   0.93150   0.30391765E+00
   0.93250   0.31073377E+00
   0.93350   0.31708768E+00
   0.93450   0.32313550E+00
   0.93550   0.32931641E+00
   0.93650   0.33622667E+00
   0.93750   0.34469506E+00
   0.93850   0.35589227E+00
   0.93950   0.36829779E+00
   0.94050   0.37599319E+00
   0.94150   0.38317493E+00
   0.94250   0.39468500E+00
   0.94350   0.40585577E+00
   0.94450   0.41251287E+00
   0.94550   0.41923359E+00
   0.94650   0.42685974E+00
   0.94750   0.43493861E+00
   0.94850   0.44305217E+00
   0.94950   0.45114627E+00
   0.95050   0.45934471E+00
   0.95150   0.46700171E+00
   0.95250   0.47312966E+00
   0.95350   0.48042363E+00
   0.95450   0.49502543E+00
   0.95550   0.51478761E+00
   0.95650   0.53520107E+00
   0.95750   0.55762148E+00
   0.95850   0.57576549E+00
   0.95950   0.59004647E+00
   0.96050   0.60842514E+00
   0.96150   0.63233745E+00
   0.96250   0.66094637E+00
   0.96350   0.69316721E+00
   0.96450   0.72776067E+00
   0.96550   0.76415020E+00
   0.96650   0.80207473E+00
   0.96750   0.84092575E+00
   0.96850   0.87974209E+00
   0.96950   0.91760552E+00
   0.97050   0.95407641E+00
   0.97150   0.98928303E+00
   0.97250   0.10235686E+01
   0.97350   0.10570986E+01
   0.97450   0.10897110E+01
   0.97550   0.11215123E+01
   0.97650   0.11562405E+01
   0.97750   0.11947680E+01
   0.97850   0.12336757E+01
   0.97950   0.12693758E+01
   0.98050   0.13008529E+01
   0.98150   0.13328030E+01
   0.98250   0.13669107E+01
   0.98350   0.13989786E+01
   0.98450   0.14272403E+01
   0.98550   0.14531317E+01
   0.98650   0.14793659E+01
   0.98750   0.15087552E+01
   0.98850   0.15449018E+01
   0.98950   0.15918442E+01
   0.99050   0.16454741E+01
   0.99150   0.17035301E+01
   0.99250   0.17652593E+01
   0.99350   0.18255855E+01
   0.99450   0.18752474E+01
   0.99550   0.19186295E+01
   0.99650   0.19624368E+01
   0.99750   0.20110507E+01
   0.99850   0.20670285E+01
   0.99950   0.21284728E+01
